datetime,timestamp,F3,T7,C3,Cz,P3,event_id,event_label,trial
2026-07-28 09:15:11.217916,1.1478000005809008,44078.640625,31065.658203125,27816.154296875,39226.296875,38501.265625,100,CROSS,1
2026-07-28 09:15:11.217916,3.1478000000788597,44070.9140625,31057.3125,27812.53125,39219.3359375,38490.34765625,100,CROSS,1
2026-07-28 09:15:11.217916,5.147800000486313,44068.390625,31054.642578125,27812.578125,39215.85546875,38485.86328125,100,CROSS,1
2026-07-28 09:15:11.217916,7.147799999984272,44059.61328125,31047.251953125,27804.330078125,39206.17578125,38478.140625,100,CROSS,1
2026-07-28 09:15:11.235028,9.147800000391726,44063.3828125,31054.833984375,27802.708984375,39208.55859375,38484.2890625,100,CROSS,1
2026-07-28 09:15:11.235028,11.14780000079918,44079.83203125,31074.62109375,27814.7734375,39224.8671875,38501.93359375,100,CROSS,1
2026-07-28 09:15:11.235028,13.147800000297138,44092.9453125,31083.396484375,27829.744140625,39237.50390625,38513.5703125,100,CROSS,1
2026-07-28 09:15:11.235028,15.147800000704592,44091.32421875,31081.44140625,27830.890625,39235.69140625,38513.99609375,100,CROSS,1
2026-07-28 09:15:11.235028,17.14780000020255,44081.59765625,31070.140625,27821.01953125,39226.34375,38501.5546875,100,CROSS,1
2026-07-28 09:15:11.235028,19.147800000610005,44076.63671875,31059.935546875,27817.060546875,39221.578125,38491.96875,100,CROSS,1
2026-07-28 09:15:11.235028,21.147800000107964,44076.06640625,31057.361328125,27821.2109375,39221.81640625,38488.91796875,100,CROSS,1
2026-07-28 09:15:11.235028,23.147800000515417,44072.15625,31052.783203125,27817.203125,39216.37890625,38485.578125,100,CROSS,1
2026-07-28 09:15:11.251896,25.147800000013376,44084.21875,31065.37109375,27823.40234375,39226.5859375,38496.73828125,100,CROSS,1
2026-07-28 09:15:11.251896,27.14780000042083,44095.80859375,31077.72265625,27828.029296875,39235.9765625,38505.75,100,CROSS,1
2026-07-28 09:15:11.251896,29.147800000828283,44103.4375,31084.255859375,27832.796875,39243.98828125,38513.37890625,100,CROSS,1
2026-07-28 09:15:11.251896,31.147800000326242,44096.4765625,31077.673828125,27828.744140625,39238.7421875,38510.515625,100,CROSS,1
2026-07-28 09:15:11.251896,33.147800000733696,44100.09765625,31076.81640625,27832.3203125,39241.69921875,38510.9453125,100,CROSS,1
2026-07-28 09:15:11.251896,35.147800000231655,44095.1875,31068.328125,27828.171875,39235.8828125,38500.171875,100,CROSS,1
2026-07-28 09:15:11.251896,37.14780000063911,44078.1171875,31050.58984375,27814.533203125,39219.71875,38479.4765625,100,CROSS,1
2026-07-28 09:15:11.251896,39.14780000013707,44074.109375,31050.255859375,27812.197265625,39217.33203125,38478.09375,100,CROSS,1
2026-07-28 09:15:11.251896,41.14780000054452,44076.01953125,31056.693359375,27812.626953125,39218.57421875,38482.52734375,100,CROSS,1
2026-07-28 09:15:11.267119,43.14780000004248,44099.2890625,31080.296875,27830.22265625,39237.02734375,38506.65625,100,CROSS,1
2026-07-28 09:15:11.267119,45.147800000449934,44101.76953125,31081.6328125,27835.419921875,39238.88671875,38511.99609375,100,CROSS,1
2026-07-28 09:15:11.267119,47.14780000085739,44092.8984375,31077.435546875,27829.6015625,39233.1640625,38509.0390625,100,CROSS,1
2026-07-28 09:15:11.267119,49.147800000355346,44085.41015625,31072.333984375,27821.353515625,39225.25,38504.03125,100,CROSS,1
2026-07-28 09:15:11.267119,51.1478000007628,44081.0234375,31067.18359375,27819.68359375,39221.1015625,38498.8359375,100,CROSS,1
2026-07-28 09:15:11.283564,53.14780000026076,44079.73828125,31064.275390625,27823.40234375,39220.52734375,38496.0703125,100,CROSS,1
2026-07-28 09:15:11.283564,55.14780000066821,44073.25390625,31057.50390625,27819.015625,39212.421875,38488.6796875,100,CROSS,1
2026-07-28 09:15:11.283564,57.14780000016617,44064.00390625,31050.828125,27808.3828125,39200.8359375,38482.19140625,100,CROSS,1
2026-07-28 09:15:11.283564,59.147800000573625,44069.8203125,31061.462890625,27806.951171875,39205.078125,38489.91796875,100,CROSS,1
2026-07-28 09:15:11.283564,61.147800000071584,44090.0859375,31082.87109375,27820.3046875,39225.15234375,38511.8515625,100,CROSS,1
2026-07-28 09:15:11.283564,63.14780000047904,44094.328125,31085.255859375,27826.3125,39231.78125,38519.1484375,100,CROSS,1
2026-07-28 09:15:11.283564,65.14780000088649,44093.08984375,31083.396484375,27828.6015625,39232.54296875,38520.1484375,100,CROSS,1
2026-07-28 09:15:11.283564,67.14780000038445,44082.21875,31070.998046875,27820.494140625,39222.91015625,38508.5625,100,CROSS,1
2026-07-28 09:15:11.283564,69.1478000007919,44071.15625,31058.88671875,27810.337890625,39213.66015625,38493.3046875,100,CROSS,1
2026-07-28 09:15:11.283564,71.14780000028986,44067.53125,31054.9765625,27808.859375,39211.8984375,38486.29296875,100,CROSS,1
2026-07-28 09:15:11.299866,73.14780000069732,44068.4375,31057.169921875,27809.8125,39212.9453125,38488.25,100,CROSS,1
2026-07-28 09:15:11.299866,75.14780000019528,44080.0703125,31071.142578125,27816.5859375,39221.43359375,38501.6015625,100,CROSS,1
2026-07-28 09:15:11.317746,77.14780000060273,44090.32421875,31082.443359375,27821.591796875,39228.015625,38510.8984375,100,CROSS,1
2026-07-28 09:15:11.317746,79.14780000010069,44091.0390625,31080.869140625,27824.0703125,39228.39453125,38511.56640625,100,CROSS,1
2026-07-28 09:15:11.334682,81.14780000050814,44086.4140625,31078.72265625,27820.732421875,39225.6796875,38512.04296875,100,CROSS,1
2026-07-28 09:15:11.334682,83.1478000009156,44089.703125,31085.54296875,27828.41015625,39231.3984375,38518.38671875,100,CROSS,1
2026-07-28 09:15:11.351385,85.14780000041355,44064.57421875,31060.412109375,27808.955078125,39209.1796875,38494.3046875,100,CROSS,1
2026-07-28 09:15:11.351385,87.14780000082101,44051.4609375,31046.822265625,27798.322265625,39198.35546875,38477.04296875,100,CROSS,1
2026-07-28 09:15:11.351385,89.14780000031897,44053.94140625,31050.54296875,27800.75390625,39200.9765625,38479.140625,100,CROSS,1
2026-07-28 09:15:11.351385,91.14780000072642,44062.046875,31060.126953125,27806.4765625,39206.890625,38489.87109375,100,CROSS,1
2026-07-28 09:15:11.368163,93.14780000022438,44079.1171875,31077.865234375,27822.544921875,39221.43359375,38510.0390625,100,CROSS,1
2026-07-28 09:15:11.368163,95.14780000063183,44079.30859375,31076.86328125,27820.064453125,39219.671875,38509.75390625,100,CROSS,1
2026-07-28 09:15:11.368163,97.14780000012979,44075.015625,31071.5703125,27815.822265625,39216.80859375,38506.1796875,100,CROSS,1
2026-07-28 09:15:11.368163,99.14780000053725,44068.484375,31064.322265625,27809.431640625,39210.2265625,38499.64453125,100,CROSS,1
2026-07-28 09:15:11.368163,101.1478000009447,44060.09375,31054.0703125,27802.66015625,39203.12109375,38490.25390625,100,CROSS,1
2026-07-28 09:15:11.368163,103.14780000044266,44058.18359375,31048.73046875,27802.232421875,39201.98046875,38483.1953125,100,CROSS,1
2026-07-28 09:15:11.368163,105.14779999994062,44056.37109375,31044.62890625,27803.138671875,39199.35546875,38478.80859375,100,CROSS,1
2026-07-28 09:15:11.385494,107.14780000034807,44055.9921875,31047.39453125,27801.087890625,39196.78125,38479.5234375,100,CROSS,1
2026-07-28 09:15:11.385494,109.14780000075552,44067.33984375,31062.271484375,27805.283203125,39203.5546875,38490.203125,100,CROSS,1
2026-07-28 09:15:11.385494,111.14780000025348,44078.83203125,31072.90625,27811.244140625,39211.66015625,38501.125,100,CROSS,1
2026-07-28 09:15:11.385494,113.14780000066094,44092.8515625,31081.6796875,27824.595703125,39223.1015625,38512.7578125,100,CROSS,1
2026-07-28 09:15:11.385494,115.1478000001589,44081.8359375,31070.283203125,27814.390625,39211.46875,38499.55078125,100,CROSS,1
2026-07-28 09:15:11.385494,117.14780000056635,44083.83984375,31068.08984375,27815.439453125,39212.18359375,38498.9765625,100,CROSS,1
2026-07-28 09:15:11.385494,119.14780000006431,44080.69140625,31061.84375,27817.109375,39210.1328125,38490.44140625,100,CROSS,1
2026-07-28 09:15:11.385494,121.14780000047176,44070.53515625,31049.921875,27810.71875,39200.73828125,38476.18359375,100,CROSS,1
2026-07-28 09:15:11.385494,123.14779999996972,44065.671875,31047.013671875,27805.951171875,39195.4921875,38470.65234375,100,CROSS,1
2026-07-28 09:15:11.385494,125.14780000037717,44056.80078125,31043.67578125,27793.076171875,39188.0546875,38464.8828125,100,CROSS,1
2026-07-28 09:15:11.385494,127.14780000078463,44069.34375,31060.556640625,27799.513671875,39200.40625,38479.046875,100,CROSS,1
2026-07-28 09:15:11.385494,129.1478000002826,44086.9375,31077.388671875,27814.962890625,39218.046875,38496.78515625,100,CROSS,1
2026-07-28 09:15:11.385494,131.14780000069004,44089.3203125,31078.150390625,27819.3984375,39220.52734375,38502.125,100,CROSS,1
2026-07-28 09:15:11.385494,133.147800000188,44083.6484375,31073.955078125,27818.73046875,39217.80859375,38499.64453125,100,CROSS,1
2026-07-28 09:15:11.385494,135.14780000059545,44068.4375,31059.6015625,27810.529296875,39207.51171875,38485.86328125,100,CROSS,1
2026-07-28 09:15:11.385494,137.1478000000934,44065.62109375,31055.59765625,27810.671875,39206.796875,38481.765625,100,CROSS,1
2026-07-28 09:15:11.385494,139.14780000050087,44057.75390625,31046.39453125,27804.1875,39199.0703125,38472.703125,100,CROSS,1
2026-07-28 09:15:11.385494,141.14779999999882,44055.65625,31045.05859375,27800.37109375,39194.20703125,38472.0859375,100,CROSS,1
2026-07-28 09:15:11.385494,143.14780000040628,44067.29296875,31060.4609375,27806.951171875,39204.26953125,38486.9140625,100,CROSS,1
2026-07-28 09:15:11.401717,145.14780000081373,44067.53125,31061.939453125,27803.328125,39204.078125,38488.6796875,100,CROSS,1
2026-07-28 09:15:11.401717,147.1478000003117,44073.96875,31067.994140625,27810.48046875,39210.75390625,38499.12109375,100,CROSS,1
2026-07-28 09:15:11.401717,149.14780000071914,44084.6015625,31077.197265625,27823.021484375,39221.671875,38509.5625,100,CROSS,1
2026-07-28 09:15:11.401717,151.1478000002171,44079.1171875,31067.375,27818.921875,39216.71484375,38501.5546875,100,CROSS,1
2026-07-28 09:15:11.401717,153.14780000062456,44073.30078125,31058.505859375,27819.970703125,39211.75390625,38492.96875,100,CROSS,1
2026-07-28 09:15:11.401717,155.14780000012252,44060.140625,31046.44140625,27809.00390625,39197.54296875,38477.94921875,100,CROSS,1
2026-07-28 09:15:11.401717,157.14780000052997,44053.94140625,31041.958984375,27798.322265625,39189.296875,38472.41796875,100,CROSS,1
2026-07-28 09:15:11.401717,159.14780000002793,44063.90625,31053.974609375,27800.037109375,39197.54296875,38483.05078125,100,CROSS,1
2026-07-28 09:15:11.417788,161.14780000043538,44079.1171875,31070.283203125,27813.24609375,39214.42578125,38501.83984375,100,CROSS,1
2026-07-28 09:15:11.417788,163.14780000084284,44083.265625,31074.955078125,27822.40234375,39221.81640625,38510.13671875,100,CROSS,1
2026-07-28 09:15:11.417788,165.1478000003408,44075.16015625,31067.421875,27814.19921875,39215.7109375,38504.17578125,100,CROSS,1
2026-07-28 09:15:11.417788,167.14780000074825,44069.34375,31063.46484375,27811.33984375,39213.13671875,38499.7421875,100,CROSS,1
2026-07-28 09:15:11.417788,169.1478000002462,44065.671875,31057.98046875,27813.24609375,39213.61328125,38494.3515625,100,CROSS,1
2026-07-28 09:15:11.417788,171.14780000065366,44059.08984375,31052.259765625,27814.296875,39209.84765625,38487.15234375,100,CROSS,1
2026-07-28 09:15:11.417788,173.14780000015162,44050.9375,31047.013671875,27806.142578125,39202.3125,38480.23828125,100,CROSS,1
2026-07-28 09:15:11.417788,175.14780000055907,44044.8828125,31046.775390625,27793.6015625,39195.20703125,38477.28125,100,CROSS,1
2026-07-28 09:15:11.417788,177.14780000005703,44058.421875,31060.03125,27797.98828125,39203.36328125,38488.8203125,100,CROSS,1
2026-07-28 09:15:11.417788,179.14780000046449,44068.76953125,31066.802734375,27806.427734375,39212.8046875,38497.35546875,100,CROSS,1
2026-07-28 09:15:11.417788,181.14780000087194,44067.1953125,31064.322265625,27807.619140625,39214.7578125,38497.64453125,100,CROSS,1
2026-07-28 09:15:11.433356,183.1478000003699,44068.72265625,31062.796875,27809.71875,39215.234375,38497.453125,100,CROSS,1
2026-07-28 09:15:11.433356,185.14780000077735,44062.19140625,31052.736328125,27804.28125,39206.69921875,38486.15234375,100,CROSS,1
2026-07-28 09:15:11.433356,187.1478000002753,44059.08984375,31046.583984375,27805.09375,39203.02734375,38478.33203125,100,CROSS,1
2026-07-28 09:15:11.433356,189.14780000068276,44047.265625,31033.232421875,27794.650390625,39189.8671875,38464.69140625,100,CROSS,1
2026-07-28 09:15:11.433356,191.14780000018072,44052.60546875,31041.673828125,27794.26953125,39189.390625,38468.5546875,100,CROSS,1
2026-07-28 09:15:11.433356,193.14780000058818,44078.01953125,31067.326171875,27811.005859375,39209.703125,38490.203125,100,CROSS,1
2026-07-28 09:15:11.433356,195.14780000008614,44076.01953125,31064.560546875,27807.857421875,39207.84375,38487.7265625,100,CROSS,1
2026-07-28 09:15:11.433356,197.1478000004936,44077.2109375,31065.9921875,27810.2890625,39211.0390625,38491.82421875,100,CROSS,1
2026-07-28 09:15:11.433356,199.14780000090104,44077.40234375,31063.94140625,27811.33984375,39209.98828125,38492.58984375,100,CROSS,1
2026-07-28 09:15:11.433356,201.147800000399,44068.9609375,31052.068359375,27806.09375,39203.45703125,38480.953125,100,CROSS,1
2026-07-28 09:15:11.433356,203.14780000080646,44069.19921875,31048.73046875,27808.62109375,39204.21875,38475.8515625,100,CROSS,1
2026-07-28 09:15:11.433356,205.14780000030441,44062.09375,31042.912109375,27805.80859375,39198.35546875,38469.9375,100,CROSS,1
2026-07-28 09:15:11.433356,207.14780000071187,44058.47265625,31042.865234375,27799.275390625,39195.54296875,38469.078125,100,CROSS,1
2026-07-28 09:15:11.433356,209.14780000020983,44064.3828125,31052.49609375,27798.560546875,39198.59375,38476.61328125,100,CROSS,1
2026-07-28 09:15:11.433356,211.14780000061728,44085.9375,31075.052734375,27818.4921875,39219.671875,38500.59765625,100,CROSS,1
2026-07-28 09:15:11.433356,213.14780000011524,44082.93359375,31071.904296875,27818.443359375,39219.2421875,38501.6015625,100,CROSS,1
2026-07-28 09:15:11.433356,215.1478000005227,44069.67578125,31062.271484375,27805.759765625,39209.65625,38492.109375,100,CROSS,1
2026-07-28 09:15:11.433356,217.14780000093015,44076.2578125,31064.275390625,27811.33984375,39215.6640625,38496.1640625,100,CROSS,1
2026-07-28 09:15:11.433356,219.1478000004281,44081.69140625,31067.18359375,27821.01953125,39220.95703125,38496.44921875,100,CROSS,1
2026-07-28 09:15:11.433356,221.14779999992606,44079.1171875,31062.748046875,27823.40234375,39217.76171875,38491.77734375,100,CROSS,1
2026-07-28 09:15:11.450726,223.14780000033352,44064.14453125,31048.4921875,27808.763671875,39200.64453125,38477.28125,100,CROSS,1
2026-07-28 09:15:11.450726,225.14780000074097,44062.33203125,31050.638671875,27802.61328125,39197.734375,38476.56640625,100,CROSS,1
2026-07-28 09:15:11.450726,227.14780000023893,44075.921875,31066.23046875,27809.57421875,39208.46484375,38490.6796875,100,CROSS,1
2026-07-28 09:15:11.450726,229.14780000064638,44077.92578125,31067.994140625,27811.33984375,39208.12890625,38493.68359375,100,CROSS,1
2026-07-28 09:15:11.450726,231.14780000014434,44082.07421875,31073.955078125,27817.30078125,39212.27734375,38501.07421875,100,CROSS,1
2026-07-28 09:15:11.466367,233.1478000005518,44070.58203125,31063.2734375,27807.28515625,39201.64453125,38489.6328125,100,CROSS,1
2026-07-28 09:15:11.466367,235.14780000004976,44071.10546875,31062.654296875,27806.76171875,39202.265625,38486.76953125,100,CROSS,1
2026-07-28 09:15:11.466367,237.1478000004572,44066.86328125,31054.30859375,27806.33203125,39197.6875,38479.23828125,100,CROSS,1
2026-07-28 09:15:11.466367,239.14779999995517,44062.046875,31048.4921875,27806.189453125,39192.6328125,38473.32421875,100,CROSS,1
2026-07-28 09:15:11.466367,241.14780000036262,44060.28125,31052.306640625,27802.61328125,39191.44140625,38474.9921875,100,CROSS,1
2026-07-28 09:15:11.466367,243.14780000077008,44066.1484375,31061.796875,27800.181640625,39195.921875,38481.859375,100,CROSS,1
2026-07-28 09:15:11.466367,245.14780000026803,44072.109375,31066.515625,27801.70703125,39201.16796875,38489.15625,100,CROSS,1
2026-07-28 09:15:11.466367,247.1478000006755,44070.6796875,31066.181640625,27803.900390625,39204.83984375,38492.63671875,100,CROSS,1
2026-07-28 09:15:11.466367,249.14780000017345,44076.828125,31072.28515625,27812.244140625,39213.56640625,38502.125,100,CROSS,1
2026-07-28 09:15:11.466367,251.1478000005809,44080.8828125,31074.478515625,27822.306640625,39221.48046875,38505.69921875,100,CROSS,1
2026-07-28 09:15:11.483697,253.14780000007886,44065.91015625,31057.7421875,27813.818359375,39209.89453125,38488.05859375,100,CROSS,1
2026-07-28 09:15:11.483697,255.1478000004863,44067.29296875,31057.169921875,27816.251953125,39210.703125,38487.62890625,100,CROSS,1
2026-07-28 09:15:11.483697,257.1477999999843,44065.71875,31056.359375,27813.103515625,39207.4140625,38487.15234375,100,CROSS,1
2026-07-28 09:15:11.483697,259.1478000003917,44069.9140625,31065.9921875,27811.720703125,39210.0390625,38495.2109375,100,CROSS,1
2026-07-28 09:15:11.483697,261.1478000007992,44088.12890625,31082.775390625,27827.646484375,39227.01171875,38513.47265625,100,CROSS,1
2026-07-28 09:15:11.483697,263.14780000029714,44084.7421875,31076.86328125,27826.359375,39224.9140625,38510.66015625,100,CROSS,1
2026-07-28 09:15:11.483697,265.1478000007046,44079.21484375,31071.189453125,27818.634765625,39217.859375,38505.46484375,100,CROSS,1
2026-07-28 09:15:11.483697,267.14780000020255,44078.0703125,31068.900390625,27817.634765625,39215.76171875,38502.41015625,100,CROSS,1
2026-07-28 09:15:11.483697,269.14780000061,44075.11328125,31061.69921875,27817.728515625,39211.37109375,38493.4921875,100,CROSS,1
2026-07-28 09:15:11.483697,271.14780000010796,44071.48828125,31054.548828125,27817.15625,39203.83984375,38485.24609375,100,CROSS,1
2026-07-28 09:15:11.483697,273.1478000005154,44064.57421875,31051.447265625,27810.623046875,39197.06640625,38480.09375,100,CROSS,1
2026-07-28 09:15:11.483697,275.1478000000134,44077.2109375,31068.470703125,27815.869140625,39206.69921875,38492.109375,100,CROSS,1
2026-07-28 09:15:11.500009,277.14780000042083,44082.171875,31074.71875,27815.822265625,39209.3203125,38496.40234375,100,CROSS,1
2026-07-28 09:15:11.500009,279.1478000008283,44087.796875,31076.86328125,27820.3984375,39213.421875,38501.88671875,100,CROSS,1
2026-07-28 09:15:11.500009,281.14780000032624,44088.51171875,31079.486328125,27822.92578125,39215.1875,38504.890625,100,CROSS,1
2026-07-28 09:15:11.500009,283.1478000007337,44070.9140625,31064.1328125,27806.857421875,39200.5,38488.7265625,100,CROSS,1
2026-07-28 09:15:11.500009,285.14780000023165,44071.5859375,31063.369140625,27806.76171875,39200.78515625,38485.72265625,100,CROSS,1
2026-07-28 09:15:11.500009,287.1478000006391,44062.4765625,31051.06640625,27802.421875,39192.6328125,38472.65625,100,CROSS,1
2026-07-28 09:15:11.516954,289.14780000013707,44055.46875,31043.0078125,27795.9375,39185.671875,38465.45703125,100,CROSS,1
2026-07-28 09:15:11.516954,291.1478000005445,44061.5703125,31051.2109375,27798.41796875,39191.203125,38473.32421875,100,CROSS,1
2026-07-28 09:15:11.516954,293.1478000000425,44071.91796875,31061.365234375,27803.04296875,39199.26171875,38484.53125,100,CROSS,1
2026-07-28 09:15:11.516954,295.14780000044993,44078.35546875,31067.326171875,27805.759765625,39207.69921875,38492.3984375,100,CROSS,1
2026-07-28 09:15:11.516954,297.1478000008574,44075.68359375,31065.9921875,27804.330078125,39207.12890625,38492.68359375,100,CROSS,1
2026-07-28 09:15:11.516954,299.14780000035535,44081.50390625,31072.4296875,27813.9140625,39215.140625,38500.6953125,100,CROSS,1
2026-07-28 09:15:11.516954,301.1478000007628,44083.6953125,31069.330078125,27820.064453125,39216.42578125,38500.3125,100,CROSS,1
2026-07-28 09:15:11.516954,303.14780000026076,44075.25390625,31058.267578125,27813.484375,39207.2734375,38486.53125,100,CROSS,1
2026-07-28 09:15:11.516954,305.1478000006682,44078.546875,31062.224609375,27818.443359375,39208.94140625,38488.05859375,100,CROSS,1
2026-07-28 09:15:11.516954,307.14780000016617,44071.91796875,31058.314453125,27814.056640625,39203.36328125,38483.52734375,100,CROSS,1
2026-07-28 09:15:11.533676,309.1478000005736,44075.4453125,31065.515625,27813.0078125,39205.125,38488.58203125,100,CROSS,1
2026-07-28 09:15:11.533676,311.1478000000716,44092.8984375,31083.96875,27829.31640625,39221.1953125,38505.3671875,100,CROSS,1
2026-07-28 09:15:11.533676,313.14780000047904,44079.59375,31070.568359375,27816.6328125,39207.69921875,38495.35546875,100,CROSS,1
2026-07-28 09:15:11.533676,315.1478000008865,44070.390625,31064.751953125,27805.140625,39197.54296875,38488.10546875,100,CROSS,1
2026-07-28 09:15:11.533676,317.14780000038445,44070.19921875,31064.80078125,27807.763671875,39200.0234375,38490.01171875,100,CROSS,1
2026-07-28 09:15:11.533676,319.1478000007919,44065.91015625,31057.07421875,27806.5703125,39197.40234375,38482.2421875,100,CROSS,1
2026-07-28 09:15:11.533676,321.14780000028986,44070.4375,31060.5078125,27812.1015625,39200.30859375,38482.62109375,100,CROSS,1
2026-07-28 09:15:11.550593,323.1478000006973,44059.6640625,31053.736328125,27802.8046875,39190.58203125,38472.94140625,100,CROSS,1
2026-07-28 09:15:11.550593,325.1478000001953,44067.53125,31065.419921875,27804.6640625,39197.6875,38483.95703125,100,CROSS,1
2026-07-28 09:15:11.550593,327.14780000060273,44080.40625,31076.625,27813.62890625,39208.84375,38496.59375,100,CROSS,1
2026-07-28 09:15:11.550593,329.1478000001007,44079.69140625,31073.048828125,27811.81640625,39208.51171875,38495.35546875,100,CROSS,1
2026-07-28 09:15:11.550593,331.14780000050814,44086.984375,31079.296875,27821.2109375,39217.953125,38505.2734375,100,CROSS,1
2026-07-28 09:15:11.550593,333.1478000009156,44075.68359375,31067.18359375,27812.626953125,39208.03515625,38492.77734375,100,CROSS,1
2026-07-28 09:15:11.550593,335.14780000041355,44066.2421875,31055.8828125,27806.33203125,39200.9296875,38481.859375,100,CROSS,1
2026-07-28 09:15:11.566831,337.147800000821,44063.5234375,31050.017578125,27805.712890625,39199.0703125,38475.51953125,100,CROSS,1
2026-07-28 09:15:11.566831,339.14780000031897,44063.90625,31052.068359375,27809.52734375,39201.21484375,38477.6171875,100,CROSS,1
2026-07-28 09:15:11.566831,341.1478000007264,44061.09375,31051.447265625,27801.70703125,39196.734375,38474.421875,100,CROSS,1
2026-07-28 09:15:11.566831,343.1478000002244,44077.3046875,31071.236328125,27812.626953125,39212.515625,38491.39453125,100,CROSS,1
2026-07-28 09:15:11.566831,345.14780000063183,44090.0859375,31080.630859375,27824.119140625,39223.390625,38502.83984375,100,CROSS,1
2026-07-28 09:15:11.566831,347.1478000001298,44083.265625,31074.240234375,27819.58984375,39216.953125,38498.78515625,100,CROSS,1
2026-07-28 09:15:11.566831,349.14780000053725,44084.45703125,31075.2421875,27820.255859375,39218.953125,38502.6953125,100,CROSS,1
2026-07-28 09:15:11.566831,351.1478000009447,44074.16015625,31063.3203125,27813.484375,39211.8984375,38491.63671875,100,CROSS,1
2026-07-28 09:15:11.566831,353.14780000044266,44057.61328125,31044.439453125,27799.751953125,39196.92578125,38470.46484375,100,CROSS,1
2026-07-28 09:15:11.566831,355.1477999999406,44051.31640625,31038.57421875,27794.6015625,39190.34375,38464.7890625,100,CROSS,1
2026-07-28 09:15:11.566831,357.14780000034807,44054.41796875,31044.10546875,27796.69921875,39194.58984375,38471.08203125,100,CROSS,1
2026-07-28 09:15:11.583969,359.1478000007555,44073.77734375,31065.658203125,27811.052734375,39212.66015625,38491.87109375,100,CROSS,1
2026-07-28 09:15:11.583969,361.1478000002535,44084.7421875,31077.435546875,27817.109375,39223.19921875,38504.4140625,100,CROSS,1
2026-07-28 09:15:11.583969,363.14780000066094,44082.93359375,31076.86328125,27815.7734375,39222.43359375,38506.2265625,100,CROSS,1
2026-07-28 09:15:11.583969,365.1478000001589,44077.06640625,31072.66796875,27813.9140625,39217.19140625,38503.6015625,100,CROSS,1
2026-07-28 09:15:11.583969,367.14780000056635,44067.33984375,31063.89453125,27808.478515625,39210.515625,38495.97265625,100,CROSS,1
2026-07-28 09:15:11.583969,369.1478000000643,44069.8203125,31063.2734375,27815.7265625,39215.140625,38497.59375,100,CROSS,1
2026-07-28 09:15:11.583969,371.14780000047176,44059.234375,31051.92578125,27807.4296875,39204.02734375,38484.38671875,100,CROSS,1
2026-07-28 09:15:11.583969,373.1477999999697,44055.1796875,31048.826171875,27800.419921875,39197.2578125,38478.5234375,100,CROSS,1
2026-07-28 09:15:11.583969,375.1478000003772,44065.1953125,31062.224609375,27806.33203125,39204.36328125,38489.25,100,CROSS,1
2026-07-28 09:15:11.583969,377.1478000007846,44077.49609375,31074.861328125,27814.533203125,39215.04296875,38501.7890625,100,CROSS,1
2026-07-28 09:15:11.583969,379.1478000002826,44083.3125,31077.81640625,27820.064453125,39220.2890625,38506.12890625,100,CROSS,1
2026-07-28 09:15:11.617604,381.14780000069004,44074.16015625,31069.568359375,27811.912109375,39211.0390625,38497.8828125,100,CROSS,1
2026-07-28 09:15:11.617604,383.147800000188,44075.78125,31071.09375,27813.580078125,39213.13671875,38499.02734375,100,CROSS,1
2026-07-28 09:15:11.617604,385.14780000059545,44081.69140625,31072.5234375,27821.2578125,39220.3359375,38500.7421875,100,CROSS,1
2026-07-28 09:15:11.617604,387.1478000000934,44073.30078125,31058.6953125,27816.48828125,39212.66015625,38487.58203125,100,CROSS,1
2026-07-28 09:15:11.633785,389.14780000050087,44073.4921875,31059.078125,27819.63671875,39213.08984375,38489.15625,100,CROSS,1
2026-07-28 09:15:11.633785,391.1477999999988,44069.15234375,31060.794921875,27811.625,39208.84375,38486.390625,100,CROSS,1
2026-07-28 09:15:11.633785,393.1478000004063,44079.73828125,31073.955078125,27816.44140625,39218.4296875,38498.55078125,100,CROSS,1
2026-07-28 09:15:11.633785,395.14780000081373,44090.46484375,31081.39453125,27823.880859375,39228.5859375,38508.5625,100,CROSS,1
2026-07-28 09:15:11.633785,397.1478000003117,44086.4140625,31076.767578125,27822.2109375,39226.39453125,38508.1796875,100,CROSS,1
2026-07-28 09:15:11.633785,399.14780000071914,44092.61328125,31084.158203125,27830.74609375,39233.734375,38515.5234375,100,CROSS,1
2026-07-28 09:15:11.633785,401.1478000002171,44081.3125,31067.994140625,27823.0703125,39222.53125,38500.12109375,100,CROSS,1
2026-07-28 09:15:11.633785,403.14780000062456,44071.7265625,31053.689453125,27816.251953125,39212.0390625,38485.0078125,100,CROSS,1
2026-07-28 09:15:11.633785,405.1478000001225,44068.0078125,31049.826171875,27814.8203125,39208.08203125,38480.953125,100,CROSS,1
2026-07-28 09:15:11.633785,407.14780000052997,44074.96875,31059.173828125,27818.396484375,39214.13671875,38489.5859375,100,CROSS,1
2026-07-28 09:15:11.633785,409.1478000000279,44087.3203125,31074.861328125,27826.50390625,39223.72265625,38502.984375,100,CROSS,1
2026-07-28 09:15:11.633785,411.1478000004354,44086.26953125,31075.384765625,27823.59375,39223.76953125,38503.6015625,100,CROSS,1
2026-07-28 09:15:11.633785,413.14780000084284,44079.0234375,31069.1875,27815.05859375,39218.23828125,38498.12109375,100,CROSS,1
2026-07-28 09:15:11.633785,415.1478000003408,44075.3984375,31067.517578125,27811.435546875,39216.28515625,38496.9296875,100,CROSS,1
2026-07-28 09:15:11.633785,417.14780000074825,44076.16015625,31066.23046875,27814.439453125,39218.90625,38497.1171875,100,CROSS,1
2026-07-28 09:15:11.633785,419.1478000002462,44077.06640625,31064.89453125,27820.064453125,39221.671875,38495.01953125,100,CROSS,1
2026-07-28 09:15:11.633785,421.14780000065366,44067.484375,31053.451171875,27811.767578125,39212.46875,38482.3359375,100,CROSS,1
2026-07-28 09:15:11.633785,423.1478000001516,44067.29296875,31054.69140625,27812.865234375,39210.9453125,38484.72265625,100,CROSS,1
2026-07-28 09:15:11.633785,425.1478000005591,44072.82421875,31064.322265625,27814.486328125,39216.4765625,38492.16015625,100,CROSS,1
2026-07-28 09:15:11.633785,427.14780000005703,44082.88671875,31075.43359375,27819.921875,39226.6328125,38504.74609375,100,CROSS,1
2026-07-28 09:15:11.650269,429.1478000004645,44083.55078125,31076.43359375,27821.92578125,39228.87109375,38508.65625,100,CROSS,1
2026-07-28 09:15:11.650269,431.14780000087194,44074.109375,31069.28125,27813.24609375,39222.1953125,38502.03125,100,CROSS,1
2026-07-28 09:15:11.650269,433.1478000003699,44073.4921875,31069.28125,27812.72265625,39222.625,38502.171875,100,CROSS,1
2026-07-28 09:15:11.650269,435.14780000077735,44078.0703125,31068.51953125,27817.15625,39225.96484375,38501.7890625,100,CROSS,1
2026-07-28 09:15:11.650269,437.1478000002753,44081.16796875,31065.75390625,27822.2109375,39225.8671875,38498.9296875,100,CROSS,1
2026-07-28 09:15:11.650269,439.14780000068276,44071.87109375,31056.50390625,27814.677734375,39214.90234375,38488.6328125,100,CROSS,1
2026-07-28 09:15:11.650269,441.1478000001807,44067.76953125,31055.59765625,27808.955078125,39211.23046875,38486.8203125,100,CROSS,1
2026-07-28 09:15:11.682992,443.1478000005882,44086.22265625,31077.53125,27820.78125,39228.30078125,38506.46484375,100,CROSS,1
2026-07-28 09:15:11.682992,445.14780000008614,44090.5625,31080.91796875,27823.689453125,39231.6875,38512.61328125,100,CROSS,1
2026-07-28 09:15:11.717553,447.1478000004936,44080.69140625,31069.806640625,27816.44140625,39223.0078125,38505.2265625,100,CROSS,1
2026-07-28 09:15:11.717553,449.14780000090104,44083.12109375,31072.19140625,27818.349609375,39225.4375,38506.84765625,100,CROSS,1
2026-07-28 09:15:11.717553,451.147800000399,44074.3984375,31061.556640625,27812.0546875,39217.90625,38496.6875,100,CROSS,1
2026-07-28 09:15:11.717553,453.14780000080646,44064.23828125,31050.255859375,27805.80859375,39208.796875,38484.33984375,100,CROSS,1
2026-07-28 09:15:11.717553,455.1478000003044,44054.2265625,31040.00390625,27795.078125,39198.546875,38471.03515625,100,CROSS,1
2026-07-28 09:15:11.734730,457.14780000071187,44060.99609375,31048.73046875,27799.0859375,39203.12109375,38477.94921875,100,CROSS,1
2026-07-28 09:15:11.734730,459.1478000002098,44070.6796875,31062.796875,27802.517578125,39211.66015625,38489.91796875,100,CROSS,1
2026-07-28 09:15:11.734730,461.1478000006173,44087.3203125,31078.150390625,27814.056640625,39225.6796875,38504.3203125,100,CROSS,1
2026-07-28 09:15:11.734730,463.14780000011524,44091.46875,31079.056640625,27819.732421875,39229.0625,38507.609375,100,CROSS,1
2026-07-28 09:15:11.734730,465.1478000005227,44095.80859375,31082.060546875,27823.59375,39232.1640625,38513.5703125,100,CROSS,1
2026-07-28 09:15:11.734730,467.14780000093015,44093.0390625,31079.296875,27825.263671875,39233.0703125,38512.28125,100,CROSS,1
2026-07-28 09:15:11.751622,469.1478000004281,44078.01953125,31062.224609375,27815.630859375,39220.2421875,38494.640625,100,CROSS,1
2026-07-28 09:15:11.751622,471.14779999992606,44072.6796875,31056.50390625,27812.818359375,39213.08984375,38484.2421875,100,CROSS,1
2026-07-28 09:15:11.751622,473.1478000003335,44074.4921875,31061.796875,27815.630859375,39215.04296875,38488.19921875,100,CROSS,1
2026-07-28 09:15:11.751622,475.147800000741,44083.6484375,31074.955078125,27820.11328125,39222.1015625,38501.36328125,100,CROSS,1
2026-07-28 09:15:11.751622,477.14780000023893,44087.4140625,31078.865234375,27821.447265625,39223.24609375,38505.2265625,100,CROSS,1
2026-07-28 09:15:11.751622,479.1478000006464,44089.37109375,31079.9140625,27820.494140625,39224.7734375,38506.2265625,100,CROSS,1
2026-07-28 09:15:11.751622,481.14780000014434,44088.65625,31078.771484375,27818.73046875,39222.625,38508.27734375,100,CROSS,1
2026-07-28 09:15:11.751622,483.1478000005518,44094.42578125,31081.822265625,27824.30859375,39226.91796875,38512.61328125,100,CROSS,1
2026-07-28 09:15:11.768814,485.14780000004976,44092.27734375,31073.859375,27828.123046875,39226.6328125,38506.60546875,100,CROSS,1
2026-07-28 09:15:11.768814,487.1478000004572,44083.265625,31062.892578125,27825.8828125,39219.90625,38495.97265625,100,CROSS,1
2026-07-28 09:15:11.768814,489.14779999995517,44064.48046875,31047.109375,27807.19140625,39202.59765625,38476.51953125,100,CROSS,1
2026-07-28 09:15:11.768814,491.1478000003626,44064.671875,31052.49609375,27802.8984375,39202.7421875,38480.046875,100,CROSS,1
2026-07-28 09:15:11.768814,493.1478000007701,44080.73828125,31070.521484375,27813.24609375,39217.19140625,38496.6875,100,CROSS,1
2026-07-28 09:15:11.768814,495.14780000026803,44087.98828125,31078.0078125,27820.3046875,39226.203125,38507.2734375,100,CROSS,1
2026-07-28 09:15:11.768814,497.1478000006755,44093.18359375,31081.869140625,27826.98046875,39233.26171875,38515.5234375,100,CROSS,1
2026-07-28 09:15:11.768814,499.14780000017345,44080.69140625,31069.1875,27814.34375,39222.33984375,38502.41015625,100,CROSS,1
2026-07-28 09:15:11.768814,501.1478000005809,44072.0625,31058.361328125,27809.48046875,39215.6171875,38491.87109375,100,CROSS,1
2026-07-28 09:15:11.768814,503.14780000007886,44071.10546875,31054.69140625,27811.052734375,39213.99609375,38486.29296875,100,CROSS,1
2026-07-28 09:15:11.785162,505.1478000004863,44067.81640625,31054.9765625,27811.482421875,39214.56640625,38484.72265625,100,CROSS,1
2026-07-28 09:15:11.785162,507.1477999999843,44068.0078125,31058.45703125,27813.390625,39215.7109375,38489.6796875,100,CROSS,1
2026-07-28 09:15:11.785162,509.1478000003917,44069.10546875,31062.12890625,27811.1484375,39215.85546875,38492.109375,100,CROSS,1
2026-07-28 09:15:11.785162,511.1478000007992,44081.0234375,31073.955078125,27815.345703125,39224.72265625,38502.83984375,100,CROSS,1
2026-07-28 09:15:11.785162,513.1478000002971,44086.3671875,31076.38671875,27818.826171875,39228.4921875,38508.84765625,100,CROSS,1
2026-07-28 09:15:11.785162,515.1478000007046,44084.26953125,31076.1015625,27818.96875,39229.0625,38510.27734375,100,CROSS,1
2026-07-28 09:15:11.785162,517.1478000002026,44091.75390625,31080.201171875,27828.029296875,39236.50390625,38514.76171875,100,CROSS,1
2026-07-28 09:15:11.785162,519.14780000061,44082.359375,31068.232421875,27823.35546875,39228.6328125,38502.171875,100,CROSS,1
2026-07-28 09:15:11.785162,521.147800000108,44082.12109375,31064.89453125,27826.359375,39228.4453125,38497.0234375,100,CROSS,1
2026-07-28 09:15:11.801839,523.1478000005154,44090.1796875,31074.52734375,27833.703125,39234.5,38505.03515625,100,CROSS,1
2026-07-28 09:15:11.801839,525.1478000000134,44088.89453125,31078.4375,27831.69921875,39234.0703125,38509.5625,100,CROSS,1
2026-07-28 09:15:11.801839,527.1478000004208,44097.09375,31085.970703125,27837.13671875,39242.55859375,38520.29296875,100,CROSS,1
2026-07-28 09:15:11.801839,529.1478000008283,44080.30859375,31069.94921875,27817.537109375,39227.15625,38504.69921875,100,CROSS,1
2026-07-28 09:15:11.801839,531.1478000003262,44086.17578125,31077.912109375,27822.115234375,39233.734375,38514.09375,100,CROSS,1
2026-07-28 09:15:11.801839,533.1478000007337,44086.26953125,31075.2421875,27821.49609375,39233.30859375,38511.56640625,100,CROSS,1
2026-07-28 09:15:11.801839,535.1478000002317,44078.640625,31064.89453125,27819.20703125,39229.4921875,38502.6484375,100,CROSS,1
2026-07-28 09:15:11.801839,537.1478000006391,44070.6796875,31054.30859375,27815.154296875,39222.578125,38491.39453125,100,CROSS,1
2026-07-28 09:15:11.801839,539.1478000001371,44055.75390625,31041.435546875,27801.46875,39207.55859375,38476.328125,100,CROSS,1
2026-07-28 09:15:11.801839,541.1478000005445,44062.76171875,31052.115234375,27802.517578125,39212.8515625,38484.2421875,100,CROSS,1
2026-07-28 09:15:11.801839,543.1478000000425,44079.69140625,31071.474609375,27813.19921875,39226.15625,38500.93359375,100,CROSS,1
2026-07-28 09:15:11.801839,545.1478000004499,44092.375,31083.82421875,27825.59765625,39238.7421875,38515.0,100,CROSS,1
2026-07-28 09:15:11.818648,547.1478000008574,44099.2890625,31088.927734375,27836.18359375,39246.84765625,38525.77734375,100,CROSS,1
2026-07-28 09:15:11.818648,549.1478000003553,44089.65625,31080.01171875,27828.744140625,39236.359375,38516.859375,100,CROSS,1
2026-07-28 09:15:11.818648,551.1478000007628,44086.03125,31074.8125,27827.408203125,39233.640625,38510.8515625,100,CROSS,1
2026-07-28 09:15:11.818648,553.1478000002608,44065.52734375,31051.830078125,27810.576171875,39213.51953125,38487.05859375,100,CROSS,1
2026-07-28 09:15:11.818648,555.1478000006682,44056.75390625,31043.818359375,27801.087890625,39201.8828125,38475.08984375,100,CROSS,1
2026-07-28 09:15:11.818648,557.1478000001662,44065.765625,31054.1171875,27806.4765625,39207.08203125,38484.625,100,CROSS,1
2026-07-28 09:15:11.818648,559.1478000005736,44069.67578125,31060.74609375,27802.66015625,39208.796875,38488.10546875,100,CROSS,1
2026-07-28 09:15:11.818648,561.1478000000716,44086.5078125,31078.150390625,27813.341796875,39223.72265625,38503.9375,100,CROSS,1
2026-07-28 09:15:11.818648,563.147800000479,44092.75390625,31083.873046875,27822.59375,39230.78125,38511.99609375,100,CROSS,1
2026-07-28 09:15:11.818648,565.1478000008865,44083.6953125,31074.861328125,27817.203125,39222.76953125,38506.1796875,100,CROSS,1
2026-07-28 09:15:11.818648,567.1478000003844,44083.3125,31070.712890625,27820.3046875,39224.8203125,38504.9375,100,CROSS,1
2026-07-28 09:15:11.818648,569.1478000007919,44082.6953125,31068.51953125,27826.55078125,39227.91796875,38502.41015625,100,CROSS,1
2026-07-28 09:15:11.818648,571.1478000002899,44073.96875,31060.841796875,27821.447265625,39221.0546875,38492.5390625,100,CROSS,1
2026-07-28 09:15:11.818648,573.1478000006973,44066.1953125,31054.78515625,27813.580078125,39213.08984375,38484.671875,100,CROSS,1
2026-07-28 09:15:11.818648,575.1478000001953,44074.34765625,31065.228515625,27817.060546875,39219.765625,38493.63671875,100,CROSS,1
2026-07-28 09:15:11.835381,577.1478000006027,44092.70703125,31085.16015625,27828.83984375,39235.59765625,38512.08984375,100,CROSS,1
2026-07-28 09:15:11.835381,579.1478000001007,44081.8828125,31075.43359375,27818.30078125,39227.39453125,38504.12890625,100,CROSS,1
2026-07-28 09:15:11.835381,581.1478000005081,44075.3984375,31072.142578125,27809.908203125,39221.86328125,38501.88671875,100,CROSS,1
2026-07-28 09:15:11.835381,583.1478000009156,44094.1875,31087.068359375,27829.79296875,39240.74609375,38520.0078125,100,CROSS,1
2026-07-28 09:15:11.835381,585.1478000004136,44091.0390625,31078.0078125,27833.751953125,39239.83984375,38512.7109375,100,CROSS,1
2026-07-28 09:15:11.835381,587.147800000821,44078.1171875,31064.322265625,27825.8359375,39227.44140625,38495.640625,100,CROSS,1
2026-07-28 09:15:11.835381,589.147800000319,44079.21484375,31067.279296875,27828.029296875,39226.5859375,38494.78125,100,CROSS,1
2026-07-28 09:15:11.835381,591.1478000007264,44082.359375,31071.5703125,27826.55078125,39228.34765625,38499.3125,100,CROSS,1
2026-07-28 09:15:11.835381,593.1478000002244,44092.18359375,31083.015625,27827.169921875,39233.9765625,38508.46875,100,CROSS,1
2026-07-28 09:15:11.835381,595.1478000006318,44104.62890625,31093.791015625,27839.47265625,39246.1328125,38522.390625,100,CROSS,1
2026-07-28 09:15:11.835381,597.1478000001298,44089.41796875,31079.248046875,27827.6953125,39234.35546875,38511.61328125,100,CROSS,1
2026-07-28 09:15:11.835381,599.1478000005372,44083.7421875,31077.29296875,27821.01953125,39231.2578125,38507.5625,100,CROSS,1
2026-07-28 09:15:11.835381,601.1478000009447,44078.40234375,31067.279296875,27816.154296875,39225.7734375,38499.16796875,100,CROSS,1
2026-07-28 09:15:11.835381,603.1478000004427,44075.25390625,31060.74609375,27817.77734375,39224.8671875,38493.3515625,100,CROSS,1
2026-07-28 09:15:11.835381,605.1477999999406,44073.68359375,31059.935546875,27817.443359375,39225.10546875,38491.4453125,100,CROSS,1
2026-07-28 09:15:11.851974,607.1478000003481,44066.86328125,31056.359375,27806.76171875,39215.99609375,38485.9609375,100,CROSS,1
2026-07-28 09:15:11.851974,609.1478000007555,44079.5,31071.951171875,27815.53515625,39228.34765625,38500.21875,100,CROSS,1
2026-07-28 09:15:11.851974,611.1478000002535,44095.7578125,31088.212890625,27829.31640625,39244.1796875,38518.38671875,100,CROSS,1
2026-07-28 09:15:11.851974,613.1478000006609,44096.37890625,31087.259765625,27829.5546875,39244.84765625,38520.38671875,100,CROSS,1
2026-07-28 09:15:11.851974,615.1478000001589,44099.62109375,31090.548828125,27835.9921875,39249.56640625,38526.109375,100,CROSS,1
2026-07-28 09:15:11.851974,617.1478000005663,44086.69921875,31075.91015625,27825.978515625,39239.36328125,38511.56640625,100,CROSS,1
2026-07-28 09:15:11.851974,619.1478000000643,44086.3671875,31074.57421875,27828.41015625,39238.98046875,38505.890625,100,CROSS,1
2026-07-28 09:15:11.851974,621.1478000004718,44079.35546875,31066.0390625,27823.59375,39230.25390625,38494.97265625,100,CROSS,1
2026-07-28 09:15:11.851974,623.1477999999697,44071.96484375,31059.078125,27815.7265625,39221.00390625,38489.53515625,100,CROSS,1
2026-07-28 09:15:11.851974,625.1478000003772,44083.265625,31072.953125,27820.970703125,39227.6328125,38499.55078125,100,CROSS,1
2026-07-28 09:15:11.869165,627.1478000007846,44104.296875,31093.791015625,27834.41796875,39244.609375,38518.86328125,100,CROSS,1
2026-07-28 09:15:11.869165,629.1478000002826,44101.05078125,31087.92578125,27832.892578125,39240.03125,38517.859375,100,CROSS,1
2026-07-28 09:15:11.869165,631.14780000069,44083.171875,31073.3828125,27816.6796875,39225.01171875,38503.5546875,100,CROSS,1
2026-07-28 09:15:11.869165,633.147800000188,44088.51171875,31078.4375,27819.255859375,39228.4453125,38507.1796875,100,CROSS,1
2026-07-28 09:15:11.869165,635.1478000005955,44097.4765625,31081.6328125,27832.08203125,39237.64453125,38513.7109375,100,CROSS,1
2026-07-28 09:15:11.869165,637.1478000000934,44082.45703125,31064.513671875,27825.40625,39226.10546875,38496.44921875,100,CROSS,1
2026-07-28 09:15:11.869165,639.1478000005009,44081.8828125,31067.279296875,27825.40625,39226.10546875,38495.640625,100,CROSS,1
2026-07-28 09:15:11.869165,641.1477999999988,44083.55078125,31075.2890625,27823.35546875,39228.109375,38500.02734375,100,CROSS,1
2026-07-28 09:15:11.869165,643.1478000004063,44097.5703125,31089.357421875,27829.888671875,39238.93359375,38512.8046875,100,CROSS,1
2026-07-28 09:15:11.869165,645.1478000008137,44104.484375,31094.41015625,27837.70703125,39247.13671875,38522.390625,100,CROSS,1
2026-07-28 09:15:11.869165,647.1478000003117,44086.69921875,31079.439453125,27823.1640625,39232.78125,38508.80078125,100,CROSS,1
2026-07-28 09:15:11.869165,649.1478000007191,44086.796875,31080.05859375,27821.2109375,39232.78125,38509.0390625,100,CROSS,1
2026-07-28 09:15:11.885738,651.1478000002171,44088.2734375,31077.29296875,27824.548828125,39234.73828125,38507.75390625,100,CROSS,1
2026-07-28 09:15:11.885738,653.1478000006246,44094.28125,31080.677734375,27834.1328125,39241.26953125,38511.56640625,100,CROSS,1
2026-07-28 09:15:11.885738,655.1478000001225,44086.22265625,31073.09765625,27830.74609375,39232.06640625,38502.125,100,CROSS,1
2026-07-28 09:15:11.885738,657.14780000053,44073.77734375,31063.607421875,27816.251953125,39220.48046875,38492.68359375,100,CROSS,1
2026-07-28 09:15:11.885738,659.1478000000279,44084.36328125,31077.29296875,27821.2578125,39230.3515625,38504.3203125,100,CROSS,1
2026-07-28 09:15:11.885738,661.1478000004354,44083.36328125,31077.673828125,27817.681640625,39228.82421875,38503.6015625,100,CROSS,1
2026-07-28 09:15:11.885738,663.1478000008428,44084.41015625,31078.24609375,27816.966796875,39228.5859375,38504.5078125,100,CROSS,1
2026-07-28 09:15:11.885738,665.1478000003408,44087.08203125,31079.62890625,27818.349609375,39231.11328125,38508.84765625,100,CROSS,1
2026-07-28 09:15:11.885738,667.1478000007482,44084.31640625,31075.2890625,27818.0625,39229.96875,38504.55859375,100,CROSS,1
2026-07-28 09:15:11.885738,669.1478000002462,44083.3125,31070.37890625,27820.923828125,39230.3046875,38499.07421875,100,CROSS,1
2026-07-28 09:15:11.885738,671.1478000006537,44083.6484375,31069.42578125,27827.88671875,39231.2578125,38499.40625,100,CROSS,1
2026-07-28 09:15:11.901877,673.1478000001516,44079.0234375,31068.8046875,27824.166015625,39226.39453125,38496.49609375,100,CROSS,1
2026-07-28 09:15:11.901877,675.1478000005591,44084.984375,31077.578125,27825.263671875,39229.68359375,38504.65234375,100,CROSS,1
2026-07-28 09:15:11.901877,677.147800000057,44089.2734375,31082.919921875,27823.498046875,39230.3046875,38508.0390625,100,CROSS,1
2026-07-28 09:15:11.901877,679.1478000004645,44098.3359375,31090.787109375,27829.79296875,39238.41015625,38516.71484375,100,CROSS,1
2026-07-28 09:15:11.901877,681.1478000008719,44094.7109375,31088.83203125,27829.458984375,39236.265625,38516.3359375,100,CROSS,1
2026-07-28 09:15:11.901877,683.1478000003699,44088.65625,31084.064453125,27825.787109375,39230.63671875,38511.421875,100,CROSS,1
2026-07-28 09:15:11.901877,685.1478000007774,44096.37890625,31089.9765625,27836.515625,39239.6015625,38517.19140625,100,CROSS,1
2026-07-28 09:15:11.917390,687.1478000002753,44080.64453125,31069.51953125,27826.50390625,39225.15234375,38497.8828125,100,CROSS,1
2026-07-28 09:15:11.917390,689.1478000006828,44067.76953125,31057.408203125,27814.533203125,39212.0390625,38483.2890625,100,CROSS,1
2026-07-28 09:15:11.917390,691.1478000001807,44074.82421875,31067.8046875,27816.91796875,39219.71875,38492.109375,100,CROSS,1
2026-07-28 09:15:11.917390,693.1478000005882,44087.2734375,31080.96484375,27821.2578125,39227.6328125,38504.4609375,100,CROSS,1
2026-07-28 09:15:11.917390,695.1478000000861,44104.9140625,31093.791015625,27835.5625,39243.65625,38521.390625,100,CROSS,1
2026-07-28 09:15:11.917390,697.1478000004936,44088.75,31080.96484375,27824.26171875,39232.640625,38511.66015625,100,CROSS,1
2026-07-28 09:15:11.917390,699.147800000901,44089.37109375,31084.158203125,27823.78515625,39235.5,38513.5703125,100,CROSS,1
2026-07-28 09:15:11.934464,701.147800000399,44103.29296875,31092.3125,27841.142578125,39248.28125,38521.9609375,100,CROSS,1
2026-07-28 09:15:11.934464,703.1478000008065,44095.140625,31079.533203125,27841.857421875,39242.4140625,38510.421875,100,CROSS,1
2026-07-28 09:15:11.934464,705.1478000003044,44073.5390625,31057.6953125,27824.69140625,39221.1484375,38488.05859375,100,CROSS,1
2026-07-28 09:15:11.934464,707.1478000007119,44066.578125,31054.357421875,27811.29296875,39212.13671875,38481.14453125,100,CROSS,1
2026-07-28 09:15:11.934464,709.1478000002098,44083.7890625,31076.1015625,27820.064453125,39225.7734375,38496.640625,100,CROSS,1
2026-07-28 09:15:11.934464,711.1478000006173,44103.53125,31093.123046875,27832.845703125,39240.65234375,38514.80859375,100,CROSS,1
2026-07-28 09:15:11.934464,713.1478000001152,44113.2578125,31100.32421875,27846.052734375,39252.33203125,38526.15625,100,CROSS,1
2026-07-28 09:15:11.934464,715.1478000005227,44096.85546875,31087.2109375,27829.41015625,39238.41015625,38511.234375,100,CROSS,1
2026-07-28 09:15:11.934464,717.1478000009301,44089.3203125,31075.71875,27820.3515625,39229.73046875,38501.7890625,100,CROSS,1
2026-07-28 09:15:11.934464,719.1478000004281,44074.68359375,31058.88671875,27812.244140625,39216.71484375,38485.9140625,100,CROSS,1
2026-07-28 09:15:11.934464,721.1477999999261,44071.87109375,31055.119140625,27811.958984375,39213.7578125,38479.6171875,100,CROSS,1
2026-07-28 09:15:11.934464,723.1478000003335,44072.82421875,31058.744140625,27813.24609375,39215.140625,38483.765625,100,CROSS,1
2026-07-28 09:15:11.934464,725.147800000741,44077.3046875,31067.66015625,27813.724609375,39216.953125,38490.96875,100,CROSS,1
2026-07-28 09:15:11.951037,727.1478000002389,44093.8984375,31085.54296875,27823.498046875,39230.4453125,38506.796875,100,CROSS,1
2026-07-28 09:15:11.951037,729.1478000006464,44097.76171875,31087.92578125,27829.935546875,39235.21484375,38512.42578125,100,CROSS,1
2026-07-28 09:15:11.951037,731.1478000001443,44098.3359375,31089.0234375,27832.51171875,39236.21484375,38516.23828125,100,CROSS,1
2026-07-28 09:15:11.951037,733.1478000005518,44103.81640625,31094.029296875,27840.6640625,39241.69921875,38521.9609375,100,CROSS,1
2026-07-28 09:15:11.951037,735.1478000000498,44086.4140625,31072.66796875,27829.029296875,39224.7734375,38501.88671875,100,CROSS,1
2026-07-28 09:15:11.951037,737.1478000004572,44073.77734375,31057.3125,27818.015625,39211.46875,38484.43359375,100,CROSS,1
2026-07-28 09:15:11.951037,739.1477999999552,44078.40234375,31062.98828125,27822.6875,39216.046875,38488.91796875,100,CROSS,1
2026-07-28 09:15:11.967603,741.1478000003626,44078.546875,31065.609375,27818.158203125,39214.61328125,38488.390625,100,CROSS,1
2026-07-28 09:15:11.967603,743.1478000007701,44090.27734375,31081.107421875,27823.259765625,39225.01171875,38501.83984375,100,CROSS,1
2026-07-28 09:15:11.967603,745.147800000268,44089.94140625,31080.05859375,27820.3984375,39225.9140625,38500.6953125,100,CROSS,1
2026-07-28 09:15:11.967603,747.1478000006755,44084.6015625,31074.3359375,27814.15234375,39221.52734375,38496.78515625,100,CROSS,1
2026-07-28 09:15:11.967603,749.1478000001734,44092.61328125,31082.109375,27822.01953125,39231.01953125,38505.46484375,100,CROSS,1
2026-07-28 09:15:11.967603,751.1478000005809,44093.61328125,31081.775390625,27828.45703125,39236.12109375,38508.27734375,100,CROSS,1
2026-07-28 09:15:11.967603,753.1478000000789,44091.75390625,31078.390625,27832.892578125,39237.8359375,38506.08203125,100,CROSS,1
2026-07-28 09:15:11.984668,755.1478000004863,44078.9765625,31065.705078125,27822.544921875,39226.44140625,38492.25390625,100,CROSS,1
2026-07-28 09:15:11.984668,757.1477999999843,44072.82421875,31062.4140625,27812.1015625,39218.62109375,38486.67578125,100,CROSS,1
2026-07-28 09:15:11.984668,759.1478000003917,44086.4609375,31081.91796875,27816.966796875,39229.82421875,38503.65234375,100,CROSS,1
2026-07-28 09:15:11.984668,761.1478000007992,44106.7734375,31102.041015625,27834.609375,39248.99609375,38526.30078125,100,CROSS,1
2026-07-28 09:15:11.984668,763.1478000002971,44115.9296875,31109.384765625,27849.056640625,39260.25,38539.69921875,100,CROSS,1
2026-07-28 09:15:11.984668,765.1478000007046,44111.3984375,31106.904296875,27848.9140625,39257.9609375,38538.5078125,100,CROSS,1
2026-07-28 09:15:11.984668,767.1478000002026,44101.91015625,31097.939453125,27842.4296875,39249.8515625,38527.77734375,100,CROSS,1
2026-07-28 09:15:11.984668,769.14780000061,44094.7109375,31086.49609375,27839.376953125,39241.60546875,38518.1953125,100,CROSS,1
2026-07-28 09:15:11.984668,771.147800000108,44087.3671875,31078.62890625,27835.181640625,39234.453125,38508.1796875,100,CROSS,1
2026-07-28 09:15:12.000757,773.1478000005154,44086.5078125,31080.53515625,27833.46484375,39230.921875,38507.5625,100,CROSS,1
2026-07-28 09:15:12.000757,775.1478000000134,44091.66015625,31084.587890625,27833.177734375,39232.54296875,38510.0390625,100,CROSS,1
2026-07-28 09:15:12.000757,777.1478000004208,44100.2890625,31093.6015625,27833.607421875,39238.6484375,38517.71875,100,CROSS,1
2026-07-28 09:15:12.000757,779.1478000008283,44101.43359375,31092.884765625,27833.654296875,39239.6015625,38520.76953125,100,CROSS,1
2026-07-28 09:15:12.000757,781.1478000003262,44090.609375,31083.873046875,27823.642578125,39229.82421875,38512.42578125,100,CROSS,1
2026-07-28 09:15:12.000757,783.1478000007337,44096.046875,31086.78125,27830.22265625,39234.59375,38516.3359375,100,CROSS,1
2026-07-28 09:15:12.000757,785.1478000002317,44079.59375,31068.423828125,27817.060546875,39219.859375,38497.35546875,100,CROSS,1
2026-07-28 09:15:12.000757,787.1478000006391,44075.4453125,31063.89453125,27814.58203125,39217.28515625,38490.6796875,100,CROSS,1
2026-07-28 09:15:12.000757,789.1478000001371,44078.87890625,31067.517578125,27818.826171875,39221.38671875,38493.3046875,100,CROSS,1
2026-07-28 09:15:12.000757,791.1478000005445,44098.4296875,31087.92578125,27836.515625,39239.21875,38515.3828125,100,CROSS,1
2026-07-28 09:15:12.000757,793.1478000000425,44100.1953125,31090.59765625,27836.849609375,39241.4140625,38517.8125,100,CROSS,1
2026-07-28 09:15:12.016305,795.1478000004499,44093.421875,31083.873046875,27827.408203125,39231.54296875,38511.08984375,100,CROSS,1
2026-07-28 09:15:12.016305,797.1478000008574,44096.37890625,31085.876953125,27829.5546875,39235.453125,38514.28515625,100,CROSS,1
2026-07-28 09:15:12.016305,799.1478000003553,44089.2734375,31079.533203125,27824.119140625,39230.68359375,38508.609375,100,CROSS,1
2026-07-28 09:15:12.016305,801.1478000007628,44084.171875,31072.4296875,27820.923828125,39228.34765625,38501.02734375,100,CROSS,1
2026-07-28 09:15:12.016305,803.1478000002608,44084.125,31070.6640625,27823.1171875,39228.6328125,38496.1640625,100,CROSS,1
2026-07-28 09:15:12.016305,805.1478000006682,44073.5390625,31060.31640625,27814.8203125,39217.140625,38485.1484375,100,CROSS,1
2026-07-28 09:15:12.016305,807.1478000001662,44079.21484375,31067.041015625,27816.91796875,39220.671875,38491.4921875,100,CROSS,1
2026-07-28 09:15:12.016305,809.1478000005736,44088.1796875,31078.294921875,27817.537109375,39224.296875,38498.359375,100,CROSS,1
2026-07-28 09:15:12.016305,811.1478000000716,44102.9609375,31091.50390625,27826.837890625,39234.9296875,38510.8515625,100,CROSS,1
2026-07-28 09:15:12.032589,813.147800000479,44110.4453125,31097.796875,27840.80859375,39244.37109375,38521.1015625,100,CROSS,1
2026-07-28 09:15:12.048896,815.1478000008865,44098.3359375,31087.6875,27831.462890625,39235.1171875,38512.94921875,100,CROSS,1
2026-07-28 09:15:12.048896,817.1478000003844,44090.515625,31078.390625,27822.6875,39227.96875,38502.21875,100,CROSS,1
2026-07-28 09:15:12.048896,819.1478000007919,44087.3671875,31073.478515625,27823.9765625,39226.25,38495.546875,100,CROSS,1
2026-07-28 09:15:12.048896,821.1478000002899,44080.21484375,31065.9921875,27821.2109375,39221.0546875,38487.7734375,100,CROSS,1
2026-07-28 09:15:12.082189,823.1478000006973,44076.97265625,31062.654296875,27817.966796875,39218.4296875,38486.0078125,100,CROSS,1
2026-07-28 09:15:12.082189,825.1478000001953,44079.69140625,31068.99609375,27817.39453125,39218.90625,38490.30078125,100,CROSS,1
2026-07-28 09:15:12.082189,827.1478000006027,44085.5078125,31078.294921875,27818.109375,39222.1953125,38496.6875,100,CROSS,1
2026-07-28 09:15:12.082189,829.1478000001007,44098.5234375,31089.642578125,27826.931640625,39235.73828125,38509.32421875,100,CROSS,1
2026-07-28 09:15:12.082189,831.1478000005081,44110.3515625,31099.84765625,27840.80859375,39249.37890625,38524.91796875,100,CROSS,1
2026-07-28 09:15:12.082189,833.1478000009156,44102.76953125,31090.978515625,27837.70703125,39245.0859375,38520.0078125,100,CROSS,1
2026-07-28 09:15:12.082189,835.1478000004136,44095.04296875,31080.10546875,27832.892578125,39239.171875,38509.0859375,100,CROSS,1
2026-07-28 09:15:12.098342,837.147800000821,44098.76171875,31079.62890625,27840.90234375,39241.84375,38508.1796875,100,CROSS,1
2026-07-28 09:15:12.098342,839.147800000319,44083.83984375,31064.322265625,27829.31640625,39226.91796875,38492.875,100,CROSS,1
2026-07-28 09:15:12.098342,841.1478000007264,44084.88671875,31067.18359375,27826.3125,39227.34765625,38494.3046875,100,CROSS,1
2026-07-28 09:15:12.114995,843.1478000002244,44089.51171875,31075.2421875,27823.642578125,39229.82421875,38499.8359375,100,CROSS,1
2026-07-28 09:15:12.114995,845.1478000006318,44098.66796875,31083.015625,27828.361328125,39240.31640625,38508.37109375,100,CROSS,1
2026-07-28 09:15:12.114995,847.1478000001298,44101.81640625,31085.064453125,27829.5546875,39243.65625,38512.28125,100,CROSS,1
2026-07-28 09:15:12.114995,849.1478000005372,44098.4296875,31079.9140625,27826.216796875,39241.26953125,38508.23046875,100,CROSS,1
2026-07-28 09:15:12.114995,851.1478000009447,44094.94921875,31073.240234375,27827.646484375,39241.9375,38504.26953125,100,CROSS,1
2026-07-28 09:15:12.114995,853.1478000004427,44079.453125,31056.646484375,27815.6796875,39227.203125,38486.34375,100,CROSS,1
2026-07-28 09:15:12.114995,855.1477999999406,44078.546875,31058.171875,27816.251953125,39227.34765625,38484.1953125,100,CROSS,1
2026-07-28 09:15:12.114995,857.1478000003481,44078.6875,31063.2734375,27816.154296875,39228.68359375,38487.10546875,100,CROSS,1
2026-07-28 09:15:12.114995,859.1478000007555,44084.83984375,31071.71484375,27816.5859375,39234.0234375,38494.6875,100,CROSS,1
2026-07-28 09:15:12.114995,861.1478000002535,44108.921875,31093.744140625,27837.8984375,39255.43359375,38518.1484375,100,CROSS,1
2026-07-28 09:15:12.131688,863.1478000006609,44103.4375,31089.26171875,27834.466796875,39249.90234375,38514.42578125,100,CROSS,1
2026-07-28 09:15:12.131688,865.1478000001589,44101.578125,31089.357421875,27830.9375,39248.8984375,38515.5234375,100,CROSS,1
2026-07-28 09:15:12.131688,867.1478000005663,44095.42578125,31082.15625,27829.267578125,39244.0859375,38509.515625,100,CROSS,1
2026-07-28 09:15:12.131688,869.1478000000643,44089.94140625,31071.33203125,27828.029296875,39237.7890625,38499.64453125,100,CROSS,1
2026-07-28 09:15:12.131688,871.1478000004718,44093.08984375,31074.2890625,27833.751953125,39238.6484375,38498.453125,100,CROSS,1
2026-07-28 09:15:12.131688,873.1477999999697,44087.12890625,31073.240234375,27826.455078125,39230.25390625,38492.4921875,100,CROSS,1
2026-07-28 09:15:12.131688,875.1478000003772,44096.90234375,31086.162109375,27829.79296875,39239.79296875,38504.3671875,100,CROSS,1
2026-07-28 09:15:12.131688,877.1478000007846,44106.6328125,31093.83984375,27835.609375,39247.66015625,38514.80859375,100,CROSS,1
2026-07-28 09:15:12.131688,879.1478000002826,44099.00390625,31084.921875,27831.033203125,39241.984375,38509.66015625,100,CROSS,1
2026-07-28 09:15:12.131688,881.14780000069,44100.91015625,31087.736328125,27832.462890625,39245.80078125,38513.80859375,100,CROSS,1
2026-07-28 09:15:12.147293,883.147800000188,44098.90625,31085.685546875,27832.177734375,39244.0859375,38512.61328125,100,CROSS,1
2026-07-28 09:15:12.147293,885.1478000005955,44089.2734375,31074.3359375,27826.98046875,39235.40625,38500.7421875,100,CROSS,1
2026-07-28 09:15:12.147293,887.1478000000934,44086.3671875,31068.61328125,27826.693359375,39231.01953125,38493.3515625,100,CROSS,1
2026-07-28 09:15:12.147293,889.1478000005009,44084.125,31067.087890625,27823.40234375,39227.6328125,38490.01171875,100,CROSS,1
2026-07-28 09:15:12.147293,891.1477999999988,44097.09375,31080.869140625,27831.69921875,39237.6953125,38502.6484375,100,CROSS,1
2026-07-28 09:15:12.147293,893.1478000004063,44101.33984375,31086.06640625,27829.935546875,39239.21875,38507.37109375,100,CROSS,1
2026-07-28 09:15:12.147293,895.1478000008137,44101.2890625,31085.3984375,27826.40625,39238.88671875,38508.32421875,100,CROSS,1
2026-07-28 09:15:12.147293,897.1478000003117,44101.1484375,31085.876953125,27827.599609375,39239.6953125,38510.375,100,CROSS,1
2026-07-28 09:15:12.147293,899.1478000007191,44100.1953125,31084.302734375,27828.45703125,39239.93359375,38510.70703125,100,CROSS,1
2026-07-28 09:15:12.147293,901.1478000002171,44102.81640625,31083.873046875,27835.5625,39244.84765625,38509.9921875,100,CROSS,1
2026-07-28 09:15:12.147293,903.1478000006246,44090.94140625,31068.51953125,27826.837890625,39234.0703125,38492.4453125,100,CROSS,1
2026-07-28 09:15:12.147293,905.1478000001225,44084.41015625,31062.4140625,27823.1171875,39226.5859375,38485.0546875,100,CROSS,1
2026-07-28 09:15:12.147293,907.14780000053,44085.890625,31066.849609375,27822.40234375,39226.96484375,38487.53515625,100,CROSS,1
2026-07-28 09:15:12.164520,909.1478000000279,44101.43359375,31084.63671875,27831.033203125,39239.83984375,38502.41015625,100,CROSS,1
2026-07-28 09:15:12.164520,911.1478000004354,44121.03125,31104.328125,27848.19921875,39258.67578125,38524.44140625,100,CROSS,1
2026-07-28 09:15:12.164520,913.1478000008428,44111.06640625,31093.88671875,27839.99609375,39249.90234375,38516.0,100,CROSS,1
2026-07-28 09:15:12.164520,915.1478000003408,44105.9140625,31090.453125,27834.322265625,39246.515625,38514.33203125,100,CROSS,1
2026-07-28 09:15:12.164520,917.1478000007482,44111.63671875,31094.6015625,27841.046875,39253.5234375,38519.578125,100,CROSS,1
2026-07-28 09:15:12.164520,919.1478000002462,44105.6796875,31085.064453125,27839.330078125,39246.75390625,38509.421875,100,CROSS,1
2026-07-28 09:15:12.164520,921.1478000006537,44100.91015625,31081.345703125,27841.046875,39244.5625,38503.078125,100,CROSS,1
2026-07-28 09:15:12.164520,923.1478000001516,44086.984375,31071.09375,27829.31640625,39232.2109375,38492.3515625,100,CROSS,1
2026-07-28 09:15:12.164520,925.1478000005591,44091.515625,31078.771484375,27827.552734375,39235.546875,38498.9765625,100,CROSS,1
2026-07-28 09:15:12.164520,927.147800000057,44102.91015625,31092.07421875,27832.892578125,39245.03515625,38511.94921875,100,CROSS,1
2026-07-28 09:15:12.164520,929.1478000004645,44106.8203125,31095.31640625,27832.701171875,39247.56640625,38515.5234375,100,CROSS,1
2026-07-28 09:15:12.164520,931.1478000008719,44110.015625,31096.17578125,27837.421875,39250.90234375,38520.81640625,100,CROSS,1
2026-07-28 09:15:12.164520,933.1478000003699,44100.00390625,31086.830078125,27833.703125,39243.65625,38513.140625,100,CROSS,1
2026-07-28 09:15:12.164520,935.1478000007774,44088.98828125,31076.958984375,27826.455078125,39236.98046875,38499.64453125,100,CROSS,1
2026-07-28 09:15:12.164520,937.1478000002753,44077.44921875,31063.3203125,27818.396484375,39225.6796875,38485.4375,100,CROSS,1
2026-07-28 09:15:12.164520,939.1478000006828,44073.30078125,31058.982421875,27815.345703125,39221.43359375,38481.66796875,100,CROSS,1
2026-07-28 09:15:12.164520,941.1478000001807,44086.26953125,31074.384765625,27824.30859375,39231.58984375,38495.35546875,100,CROSS,1
2026-07-28 09:15:12.164520,943.1478000005882,44088.51171875,31080.201171875,27821.3046875,39232.640625,38500.265625,100,CROSS,1
2026-07-28 09:15:12.164520,945.1478000000861,44100.00390625,31090.8828125,27828.6484375,39244.1328125,38511.66015625,100,CROSS,1
2026-07-28 09:15:12.164520,947.1478000004936,44107.87109375,31095.69921875,27836.373046875,39250.94921875,38520.91015625,100,CROSS,1
2026-07-28 09:15:12.164520,949.147800000901,44102.72265625,31089.880859375,27832.55859375,39244.89453125,38515.76171875,100,CROSS,1
2026-07-28 09:15:12.181600,951.147800000399,44091.5625,31076.578125,27823.642578125,39233.87890625,38501.45703125,100,CROSS,1
2026-07-28 09:15:12.181600,953.1478000008065,44084.45703125,31067.61328125,27821.544921875,39228.25390625,38492.25390625,100,CROSS,1
2026-07-28 09:15:12.181600,955.1478000003044,44075.5390625,31060.603515625,27815.248046875,39221.1953125,38483.33984375,100,CROSS,1
2026-07-28 09:15:12.181600,957.1478000007119,44078.1640625,31066.46875,27814.056640625,39222.86328125,38486.76953125,100,CROSS,1
2026-07-28 09:15:12.181600,959.1478000002098,44098.046875,31088.546875,27826.12109375,39238.265625,38506.03515625,100,CROSS,1
2026-07-28 09:15:12.181600,961.1478000006173,44098.046875,31089.451171875,27822.115234375,39236.69140625,38507.84765625,100,CROSS,1
2026-07-28 09:15:12.181600,963.1478000001152,44094.7109375,31085.876953125,27816.48828125,39232.35546875,38504.984375,100,CROSS,1
2026-07-28 09:15:12.181600,965.1478000005227,44096.5234375,31085.255859375,27818.158203125,39232.87890625,38507.609375,100,CROSS,1
2026-07-28 09:15:12.181600,967.1478000009301,44093.66015625,31081.203125,27818.73046875,39231.828125,38505.03515625,100,CROSS,1
2026-07-28 09:15:12.181600,969.1478000004281,44097.3828125,31081.822265625,27828.41015625,39235.64453125,38504.26953125,100,CROSS,1
2026-07-28 09:15:12.181600,971.1477999999261,44085.5078125,31067.421875,27820.255859375,39223.390625,38488.8203125,100,CROSS,1
2026-07-28 09:15:12.198758,973.1478000003335,44083.55078125,31069.044921875,27817.634765625,39221.38671875,38488.10546875,100,CROSS,1
2026-07-28 09:15:12.198758,975.147800000741,44091.84765625,31081.345703125,27823.40234375,39226.91796875,38499.16796875,100,CROSS,1
2026-07-28 09:15:12.198758,977.1478000002389,44098.28515625,31087.591796875,27823.880859375,39231.11328125,38505.46484375,100,CROSS,1
2026-07-28 09:15:12.198758,979.1478000006464,44115.16796875,31101.8984375,27841.951171875,39248.94921875,38522.53515625,100,CROSS,1
2026-07-28 09:15:12.198758,981.1478000001443,44110.68359375,31098.08203125,27838.61328125,39245.03515625,38521.1015625,100,CROSS,1
2026-07-28 09:15:12.198758,983.1478000005518,44108.0625,31096.03125,27836.515625,39245.03515625,38519.43359375,100,CROSS,1
2026-07-28 09:15:12.198758,985.1478000000498,44100.48046875,31085.3984375,27835.515625,39240.83984375,38511.94921875,100,CROSS,1
2026-07-28 09:15:12.198758,987.1478000004572,44085.125,31068.853515625,27826.263671875,39227.77734375,38494.06640625,100,CROSS,1
2026-07-28 09:15:12.198758,989.1477999999552,44085.41015625,31070.759765625,27824.595703125,39228.203125,38493.16015625,100,CROSS,1
2026-07-28 09:15:12.198758,991.1478000003626,44083.6015625,31070.998046875,27817.77734375,39224.8203125,38492.73046875,100,CROSS,1
2026-07-28 09:15:12.198758,993.1478000007701,44092.9453125,31083.634765625,27819.875,39231.44921875,38502.6484375,100,CROSS,1
2026-07-28 09:15:12.214552,995.147800000268,44102.72265625,31094.31640625,27828.076171875,39241.84375,38514.09375,100,CROSS,1
2026-07-28 09:15:12.214552,997.1478000006755,44103.484375,31094.36328125,27830.173828125,39242.9375,38516.3828125,100,CROSS,1
2026-07-28 09:15:12.214552,999.1478000001734,44109.015625,31095.31640625,27837.8984375,39248.51953125,38522.15234375,100,CROSS,1
2026-07-28 09:15:12.214552,1001.1478000005809,44095.80859375,31077.0546875,27827.169921875,39234.83203125,38505.2734375,100,CROSS,1
2026-07-28 09:15:12.231083,1003.1478000000789,44097.80859375,31075.337890625,27829.220703125,39235.0703125,38501.45703125,100,CROSS,1
2026-07-28 09:15:12.231083,1005.1478000004863,44092.13671875,31071.857421875,27829.6015625,39231.2109375,38495.49609375,100,CROSS,1
2026-07-28 09:15:12.231083,1007.1477999999843,44088.03515625,31072.333984375,27824.73828125,39225.58203125,38494.01953125,100,CROSS,1
2026-07-28 09:15:12.231083,1009.1478000003917,44099.14453125,31087.068359375,27829.458984375,39235.64453125,38506.89453125,100,CROSS,1
2026-07-28 09:15:12.231083,1011.1478000007992,44109.0625,31098.51171875,27837.279296875,39245.03515625,38517.3828125,100,CROSS,1
2026-07-28 09:15:12.231083,1013.1478000002971,44111.2109375,31100.419921875,27840.42578125,39248.8984375,38521.24609375,100,CROSS,1
2026-07-28 09:15:12.231083,1015.1478000007046,44113.59375,31103.232421875,27845.1953125,39250.5703125,38526.68359375,100,CROSS,1
2026-07-28 09:15:12.264005,1017.1478000002026,44096.90234375,31087.353515625,27834.37109375,39237.21875,38510.8984375,100,CROSS,1
2026-07-28 09:15:12.264005,1019.14780000061,44088.55859375,31079.390625,27830.603515625,39233.26171875,38503.31640625,100,CROSS,1
2026-07-28 09:15:12.264005,1021.147800000108,44074.921875,31066.658203125,27820.78125,39221.1015625,38490.30078125,100,CROSS,1
2026-07-28 09:15:12.264005,1023.1478000005154,44079.35546875,31071.71484375,27824.595703125,39224.05859375,38497.21484375,100,CROSS,1
2026-07-28 09:15:12.280636,1025.1478000000134,44080.8828125,31075.767578125,27821.92578125,39224.7734375,38500.45703125,100,CROSS,1
2026-07-28 09:15:12.280636,1027.1478000004208,44086.984375,31084.158203125,27820.3046875,39230.4921875,38507.0859375,100,CROSS,1
2026-07-28 09:15:12.280636,1029.1478000008283,44098.14453125,31095.26953125,27830.69921875,39243.03515625,38520.81640625,100,CROSS,1
2026-07-28 09:15:12.280636,1031.1478000003262,44093.28125,31089.451171875,27827.408203125,39237.3125,38517.43359375,100,CROSS,1
2026-07-28 09:15:12.280636,1033.1478000007337,44102.484375,31094.982421875,27834.609375,39245.0859375,38522.296875,100,CROSS,1
2026-07-28 09:15:12.280636,1035.1478000002317,44101.1953125,31087.6875,27835.181640625,39245.32421875,38515.859375,100,CROSS,1
2026-07-28 09:15:12.280636,1037.147800000639,44089.37109375,31071.71484375,27829.36328125,39233.26171875,38501.41015625,100,CROSS,1
2026-07-28 09:15:12.280636,1039.147800000137,44084.26953125,31068.853515625,27827.3125,39227.30078125,38496.6875,100,CROSS,1
2026-07-28 09:15:12.280636,1041.1478000005445,44079.35546875,31068.7109375,27818.109375,39222.53125,38492.3984375,100,CROSS,1
2026-07-28 09:15:12.280636,1043.1478000000425,44097.90625,31087.44921875,27829.078125,39238.83984375,38510.66015625,100,CROSS,1
2026-07-28 09:15:12.280636,1045.14780000045,44108.77734375,31095.078125,27836.27734375,39249.04296875,38520.81640625,100,CROSS,1
2026-07-28 09:15:12.280636,1047.1478000008574,44105.62890625,31093.076171875,27834.84765625,39249.04296875,38519.71875,100,CROSS,1
2026-07-28 09:15:12.280636,1049.1478000003553,44103.0546875,31092.50390625,27835.134765625,39247.70703125,38518.8125,100,CROSS,1
2026-07-28 09:15:12.280636,1051.1478000007628,44096.09375,31082.251953125,27831.509765625,39242.890625,38509.8984375,100,CROSS,1
2026-07-28 09:15:12.297091,1053.1478000002608,44096.42578125,31080.201171875,27833.98828125,39242.08203125,38507.51171875,100,CROSS,1
2026-07-28 09:15:12.297091,1055.1478000006682,44082.7890625,31068.61328125,27826.55078125,39228.5859375,38493.828125,100,CROSS,1
2026-07-28 09:15:12.297091,1057.1478000001662,44081.3125,31067.326171875,27822.974609375,39224.296875,38493.63671875,100,CROSS,1
2026-07-28 09:15:12.297091,1059.1478000005736,44098.4296875,31085.876953125,27833.654296875,39236.50390625,38509.66015625,100,CROSS,1
2026-07-28 09:15:12.297091,1061.1478000000716,44105.96484375,31093.171875,27836.802734375,39242.2734375,38516.859375,100,CROSS,1
2026-07-28 09:15:12.297091,1063.147800000479,44103.81640625,31090.21484375,27835.515625,39240.65234375,38516.52734375,100,CROSS,1
2026-07-28 09:15:12.297091,1065.1478000008865,44100.00390625,31090.548828125,27832.748046875,39238.36328125,38516.0,100,CROSS,1
2026-07-28 09:15:12.297091,1067.1478000003844,44096.71484375,31085.685546875,27831.17578125,39236.50390625,38511.234375,100,CROSS,1
2026-07-28 09:15:12.297091,1069.147800000792,44084.171875,31070.283203125,27822.40234375,39225.15234375,38497.8359375,100,CROSS,1
2026-07-28 09:15:12.297091,1071.1478000002899,44072.53515625,31058.83984375,27813.724609375,39213.99609375,38484.2421875,100,CROSS,1
2026-07-28 09:15:12.297091,1073.1478000006973,44083.02734375,31068.56640625,27820.017578125,39223.24609375,38494.06640625,100,CROSS,1
2026-07-28 09:15:12.297091,1075.1478000001953,44094.94921875,31081.48828125,27827.169921875,39233.1171875,38506.3671875,100,CROSS,1
2026-07-28 09:15:12.297091,1077.1478000006027,44110.4921875,31099.990234375,27838.376953125,39249.28125,38523.44140625,100,CROSS,1
2026-07-28 09:15:12.297091,1079.1478000001007,44110.68359375,31096.65234375,27837.8046875,39249.61328125,38523.91796875,100,CROSS,1
2026-07-28 09:15:12.297091,1081.1478000005081,44110.25390625,31094.41015625,27836.27734375,39248.94921875,38524.296875,100,CROSS,1
2026-07-28 09:15:12.297091,1083.1478000009156,44107.6328125,31090.9296875,27836.611328125,39248.61328125,38523.390625,100,CROSS,1
2026-07-28 09:15:12.297091,1085.1478000004136,44094.234375,31073.478515625,27829.029296875,39237.55078125,38507.80078125,100,CROSS,1
2026-07-28 09:15:12.297091,1087.147800000821,44089.37109375,31066.421875,27830.984375,39233.30859375,38499.55078125,100,CROSS,1
2026-07-28 09:15:12.313445,1089.147800000319,44073.5390625,31054.0703125,27818.587890625,39218.28515625,38485.86328125,100,CROSS,1
2026-07-28 09:15:12.313445,1091.1478000007264,44079.0234375,31064.369140625,27820.064453125,39221.48046875,38494.11328125,100,CROSS,1
2026-07-28 09:15:12.313445,1093.1478000002244,44099.3828125,31085.447265625,27834.80078125,39238.83984375,38514.5234375,100,CROSS,1
2026-07-28 09:15:12.313445,1095.1478000006318,44105.34375,31091.12109375,27841.046875,39245.89453125,38521.34375,100,CROSS,1
2026-07-28 09:15:12.313445,1097.1478000001298,44105.34375,31091.978515625,27841.904296875,39245.32421875,38524.05859375,100,CROSS,1
2026-07-28 09:15:12.313445,1099.1478000005372,44089.98828125,31079.296875,27826.59765625,39231.58984375,38509.70703125,100,CROSS,1
2026-07-28 09:15:12.330617,1101.1478000009447,44082.55078125,31071.142578125,27819.541015625,39226.203125,38499.93359375,100,CROSS,1
2026-07-28 09:15:12.330617,1103.1478000004427,44082.21875,31065.80078125,27820.78125,39224.67578125,38493.3515625,100,CROSS,1
2026-07-28 09:15:12.330617,1105.1477999999406,44079.26171875,31061.939453125,27820.017578125,39221.1484375,38488.7734375,100,CROSS,1
2026-07-28 09:15:12.330617,1107.147800000348,44084.5078125,31070.37890625,27823.880859375,39226.44140625,38496.546875,100,CROSS,1
2026-07-28 09:15:12.330617,1109.1478000007555,44084.41015625,31074.193359375,27819.4921875,39223.81640625,38497.9296875,100,CROSS,1
2026-07-28 09:15:12.330617,1111.1478000002535,44090.41796875,31079.677734375,27820.638671875,39229.82421875,38504.26953125,100,CROSS,1
2026-07-28 09:15:12.330617,1113.147800000661,44089.703125,31079.439453125,27818.396484375,39230.921875,38505.65234375,100,CROSS,1
2026-07-28 09:15:12.330617,1115.147800000159,44090.1328125,31081.822265625,27820.017578125,39233.01953125,38508.37109375,100,CROSS,1
2026-07-28 09:15:12.347639,1117.1478000005663,44091.515625,31081.39453125,27824.5,39235.5,38508.0390625,100,CROSS,1
2026-07-28 09:15:12.347639,1119.1478000000643,44086.3671875,31072.810546875,27823.83203125,39231.2578125,38498.69140625,100,CROSS,1
2026-07-28 09:15:12.347639,1121.1478000004718,44077.6875,31064.41796875,27819.541015625,39224.0078125,38488.58203125,100,CROSS,1
2026-07-28 09:15:12.347639,1123.1477999999697,44073.73046875,31061.84375,27813.724609375,39217.4296875,38485.24609375,100,CROSS,1
2026-07-28 09:15:12.347639,1125.1478000003772,44087.12890625,31078.390625,27822.306640625,39227.77734375,38499.50390625,100,CROSS,1
2026-07-28 09:15:12.347639,1127.1478000007846,44106.7734375,31097.224609375,27838.28125,39244.5625,38520.0078125,100,CROSS,1
2026-07-28 09:15:12.347639,1129.1478000002826,44103.9140625,31092.7890625,27835.896484375,39241.4140625,38517.3359375,100,CROSS,1
2026-07-28 09:15:12.347639,1131.14780000069,44101.1484375,31092.7890625,27833.322265625,39238.6015625,38517.14453125,100,CROSS,1
2026-07-28 09:15:12.347639,1133.147800000188,44100.00390625,31090.16796875,27833.560546875,39237.88671875,38515.0,100,CROSS,1
2026-07-28 09:15:12.347639,1135.1478000005955,44094.99609375,31079.10546875,27828.6015625,39232.11328125,38503.79296875,100,CROSS,1
2026-07-28 09:15:12.347639,1137.1478000000934,44094.8515625,31077.197265625,27833.130859375,39230.06640625,38499.55078125,100,CROSS,1
2026-07-28 09:15:12.364390,1139.1478000005009,44073.015625,31058.505859375,27812.388671875,39207.60546875,38476.42578125,100,CROSS,1
2026-07-28 09:15:12.364390,1141.1477999999988,44080.16796875,31067.755859375,27811.435546875,39211.0859375,38482.14453125,100,CROSS,1
2026-07-28 09:15:12.364390,1143.1478000004063,44102.29296875,31090.9296875,27826.931640625,39230.875,38505.17578125,100,CROSS,1
2026-07-28 09:15:12.364390,1145.1478000008137,44113.87890625,31100.658203125,27837.66015625,39240.79296875,38517.19140625,100,CROSS,1
2026-07-28 09:15:12.364390,1147.1478000003117,44111.92578125,31098.75,27840.42578125,39240.9375,38518.05078125,100,CROSS,1
2026-07-28 09:15:12.364390,1149.1478000007191,44105.48828125,31094.744140625,27837.947265625,39238.265625,38514.046875,100,CROSS,1
2026-07-28 09:15:12.364390,1151.147800000217,44098.66796875,31086.97265625,27834.466796875,39234.9765625,38506.60546875,100,CROSS,1
2026-07-28 09:15:12.380807,1153.1478000006246,44084.078125,31070.712890625,27824.9296875,39223.484375,38490.48828125,100,CROSS,1
2026-07-28 09:15:12.380807,1155.1478000001225,44076.2109375,31062.654296875,27817.537109375,39215.328125,38482.14453125,100,CROSS,1
2026-07-28 09:15:12.380807,1157.14780000053,44080.546875,31067.66015625,27817.681640625,39218.046875,38488.01171875,100,CROSS,1
2026-07-28 09:15:12.380807,1159.147800000028,44084.26953125,31074.478515625,27815.6796875,39221.81640625,38493.68359375,100,CROSS,1
2026-07-28 09:15:12.380807,1161.1478000004354,44095.5703125,31086.49609375,27822.44921875,39234.40234375,38507.2734375,100,CROSS,1
2026-07-28 09:15:12.380807,1163.1478000008428,44099.859375,31090.9296875,27828.79296875,39240.5546875,38515.33203125,100,CROSS,1
2026-07-28 09:15:12.380807,1165.1478000003408,44095.5703125,31088.40234375,27825.501953125,39239.6484375,38514.80859375,100,CROSS,1
2026-07-28 09:15:12.397340,1167.1478000007482,44100.91015625,31089.5,27834.703125,39246.75390625,38520.53125,100,CROSS,1
2026-07-28 09:15:12.397340,1169.1478000002462,44078.546875,31066.849609375,27818.109375,39227.6328125,38496.9296875,100,CROSS,1
2026-07-28 09:15:12.397340,1171.1478000006537,44078.546875,31063.41796875,27815.53515625,39224.62890625,38492.3984375,100,CROSS,1
2026-07-28 09:15:12.397340,1173.1478000001516,44078.2578125,31060.794921875,27812.9609375,39221.71875,38489.25,100,CROSS,1
2026-07-28 09:15:12.397340,1175.147800000559,44084.5078125,31070.1875,27815.248046875,39226.7265625,38494.87890625,100,CROSS,1
2026-07-28 09:15:12.397340,1177.147800000057,44107.82421875,31094.5546875,27832.033203125,39247.08984375,38517.671875,100,CROSS,1
2026-07-28 09:15:12.397340,1179.1478000004645,44111.06640625,31097.3671875,27835.896484375,39250.6171875,38522.15234375,100,CROSS,1
2026-07-28 09:15:12.397340,1181.147800000872,44106.15234375,31092.408203125,27830.078125,39244.37109375,38516.8125,100,CROSS,1
2026-07-28 09:15:12.397340,1183.14780000037,44109.921875,31092.3125,27831.748046875,39245.75390625,38515.09375,100,CROSS,1
2026-07-28 09:15:12.397340,1185.1478000007774,44105.01171875,31085.16015625,27833.130859375,39241.03125,38507.51171875,100,CROSS,1
2026-07-28 09:15:12.430656,1187.1478000002753,44099.71875,31078.056640625,27832.892578125,39234.78515625,38498.359375,100,CROSS,1
2026-07-28 09:15:12.430656,1189.1478000006828,44096.140625,31074.384765625,27830.22265625,39228.87109375,38493.4453125,100,CROSS,1
2026-07-28 09:15:12.430656,1191.1478000001807,44099.3828125,31079.62890625,27829.935546875,39229.77734375,38498.9296875,100,CROSS,1
2026-07-28 09:15:12.447237,1193.1478000005882,44096.94921875,31084.111328125,27821.92578125,39226.10546875,38498.59765625,100,CROSS,1
2026-07-28 09:15:12.447237,1195.1478000000861,44112.640625,31098.2734375,27834.80078125,39241.12890625,38514.85546875,100,CROSS,1
2026-07-28 09:15:12.447237,1197.1478000004936,44099.14453125,31086.92578125,27826.7890625,39232.92578125,38506.41796875,100,CROSS,1
2026-07-28 09:15:12.480990,1199.147800000901,44092.23046875,31080.201171875,27820.638671875,39226.96484375,38501.41015625,100,CROSS,1
2026-07-28 09:15:12.480990,1201.147800000399,44092.08984375,31077.197265625,27823.40234375,39227.39453125,38499.7421875,100,CROSS,1
2026-07-28 09:15:12.480990,1203.1478000008065,44086.3671875,31071.33203125,27822.736328125,39224.24609375,38493.58984375,100,CROSS,1
2026-07-28 09:15:12.480990,1205.1478000003044,44088.796875,31074.908203125,27829.125,39231.3046875,38496.35546875,100,CROSS,1
2026-07-28 09:15:12.480990,1207.1478000007119,44072.96875,31062.177734375,27813.9140625,39217.6171875,38485.33984375,100,CROSS,1
2026-07-28 09:15:12.480990,1209.1478000002098,44073.87109375,31067.517578125,27808.478515625,39218.953125,38490.82421875,100,CROSS,1
2026-07-28 09:15:12.480990,1211.1478000006173,44085.125,31078.4375,27814.677734375,39230.16015625,38503.74609375,100,CROSS,1
2026-07-28 09:15:12.480990,1213.1478000001152,44087.3203125,31080.392578125,27817.443359375,39233.1640625,38507.1796875,100,CROSS,1
2026-07-28 09:15:12.480990,1215.1478000005227,44085.03125,31077.197265625,27819.4453125,39234.78515625,38509.46875,100,CROSS,1
2026-07-28 09:15:12.480990,1217.1478000009301,44077.2109375,31064.1796875,27811.38671875,39229.015625,38500.3125,100,CROSS,1
2026-07-28 09:15:12.480990,1219.147800000428,44073.82421875,31058.029296875,27812.912109375,39228.0625,38492.4453125,100,CROSS,1
2026-07-28 09:15:12.480990,1221.147799999926,44074.25390625,31059.125,27818.158203125,39228.15625,38490.34765625,100,CROSS,1
2026-07-28 09:15:12.480990,1223.1478000003335,44061.6171875,31048.015625,27806.236328125,39213.66015625,38480.09375,100,CROSS,1
2026-07-28 09:15:12.480990,1225.147800000741,44075.68359375,31063.369140625,27814.533203125,39223.9140625,38494.734375,100,CROSS,1
2026-07-28 09:15:12.497280,1227.147800000239,44073.25390625,31062.845703125,27806.666015625,39218.09765625,38492.109375,100,CROSS,1
2026-07-28 09:15:12.497280,1229.1478000006464,44072.91796875,31064.2265625,27801.66015625,39216.09375,38492.73046875,100,CROSS,1
2026-07-28 09:15:12.497280,1231.1478000001443,44078.59375,31071.5703125,27805.5703125,39221.625,38499.453125,100,CROSS,1
2026-07-28 09:15:12.497280,1233.1478000005518,44085.5546875,31075.2421875,27815.154296875,39228.15625,38505.08203125,100,CROSS,1
2026-07-28 09:15:12.497280,1235.1478000000498,44086.17578125,31070.85546875,27821.734375,39229.4453125,38499.7890625,100,CROSS,1
2026-07-28 09:15:12.497280,1237.1478000004572,44073.96875,31057.552734375,27812.578125,39217.5234375,38484.671875,100,CROSS,1
2026-07-28 09:15:12.497280,1239.1477999999552,44064.57421875,31048.96875,27802.375,39207.17578125,38474.9453125,100,CROSS,1
2026-07-28 09:15:12.497280,1241.1478000003626,44073.15625,31058.88671875,27805.998046875,39213.56640625,38481.859375,100,CROSS,1
2026-07-28 09:15:12.497280,1243.14780000077,44084.984375,31071.951171875,27811.005859375,39221.9609375,38493.68359375,100,CROSS,1
2026-07-28 09:15:12.497280,1245.147800000268,44097.4765625,31081.7265625,27821.97265625,39234.1171875,38507.41796875,100,CROSS,1
2026-07-28 09:15:12.513373,1247.1478000006755,44097.33203125,31082.82421875,27824.0703125,39236.55078125,38509.5625,100,CROSS,1
2026-07-28 09:15:12.513373,1249.1478000001734,44091.70703125,31077.388671875,27819.826171875,39231.828125,38504.078125,100,CROSS,1
2026-07-28 09:15:12.513373,1251.147800000581,44086.984375,31069.51953125,27818.5390625,39227.6796875,38496.0703125,100,CROSS,1
2026-07-28 09:15:12.513373,1253.1478000000789,44084.125,31062.748046875,27818.4921875,39225.296875,38490.01171875,100,CROSS,1
2026-07-28 09:15:12.513373,1255.1478000004863,44084.5546875,31061.12890625,27820.3984375,39224.34375,38488.10546875,100,CROSS,1
2026-07-28 09:15:12.513373,1257.1477999999843,44084.21875,31062.55859375,27816.48828125,39223.484375,38486.24609375,100,CROSS,1
2026-07-28 09:15:12.513373,1259.1478000003917,44092.375,31074.431640625,27818.587890625,39229.96875,38495.1171875,100,CROSS,1
2026-07-28 09:15:12.513373,1261.1478000007992,44100.95703125,31082.34765625,27824.357421875,39237.55078125,38504.890625,100,CROSS,1
2026-07-28 09:15:12.529717,1263.1478000002971,44097.0,31078.103515625,27821.638671875,39236.3125,38503.22265625,100,CROSS,1
2026-07-28 09:15:12.529717,1265.1478000007046,44100.57421875,31082.681640625,27824.451171875,39240.078125,38507.609375,100,CROSS,1
2026-07-28 09:15:12.529717,1267.1478000002026,44094.56640625,31074.908203125,27821.544921875,39234.640625,38500.21875,100,CROSS,1
2026-07-28 09:15:12.529717,1269.14780000061,44077.78125,31057.265625,27811.81640625,39221.71875,38483.09765625,100,CROSS,1
2026-07-28 09:15:12.529717,1271.147800000108,44066.625,31046.775390625,27802.470703125,39210.41796875,38468.84375,100,CROSS,1
2026-07-28 09:15:12.529717,1273.1478000005154,44067.578125,31049.779296875,27800.849609375,39210.27734375,38470.796875,100,CROSS,1
2026-07-28 09:15:12.529717,1275.1478000000134,44082.45703125,31068.138671875,27811.33984375,39222.76953125,38487.7265625,100,CROSS,1
2026-07-28 09:15:12.529717,1277.1478000004208,44094.47265625,31083.96875,27816.91796875,39232.92578125,38499.64453125,100,CROSS,1
2026-07-28 09:15:12.529717,1279.1478000008283,44093.51953125,31081.251953125,27815.05859375,39232.06640625,38499.8828125,100,CROSS,1
2026-07-28 09:15:12.529717,1281.1478000003262,44086.26953125,31072.66796875,27812.341796875,39225.296875,38496.546875,100,CROSS,1
2026-07-28 09:15:12.529717,1283.1478000007337,44079.0234375,31066.373046875,27809.669921875,39220.05078125,38491.68359375,100,CROSS,1
2026-07-28 09:15:12.529717,1285.1478000002317,44075.3046875,31063.89453125,27810.71875,39219.3359375,38486.0546875,100,CROSS,1
2026-07-28 09:15:12.529717,1287.147800000639,44060.6171875,31050.017578125,27799.037109375,39206.55859375,38469.26953125,100,CROSS,1
2026-07-28 09:15:12.529717,1289.147800000137,44060.51953125,31051.92578125,27798.130859375,39205.22265625,38468.890625,100,CROSS,1
2026-07-28 09:15:12.529717,1291.1478000005445,44071.91796875,31065.515625,27805.998046875,39213.18359375,38480.859375,100,CROSS,1
2026-07-28 09:15:12.529717,1293.1478000000425,44082.55078125,31078.0078125,27808.14453125,39219.09765625,38490.34765625,100,CROSS,1
2026-07-28 09:15:12.529717,1295.14780000045,44101.2421875,31092.7890625,27825.501953125,39234.0703125,38506.89453125,100,CROSS,1
2026-07-28 09:15:12.545578,1297.1478000008574,44091.9921875,31082.203125,27818.109375,39225.05859375,38499.12109375,100,CROSS,1
2026-07-28 09:15:12.545578,1299.1478000003553,44098.4296875,31086.162109375,27823.83203125,39231.11328125,38506.08203125,100,CROSS,1
2026-07-28 09:15:12.545578,1301.1478000007628,44088.08203125,31074.240234375,27818.77734375,39223.0546875,38494.640625,100,CROSS,1
2026-07-28 09:15:12.545578,1303.1478000002608,44078.49609375,31062.55859375,27813.962890625,39215.47265625,38480.859375,100,CROSS,1
2026-07-28 09:15:12.545578,1305.1478000006682,44074.96875,31056.7890625,27812.388671875,39211.515625,38473.46875,100,CROSS,1
2026-07-28 09:15:12.545578,1307.1478000001662,44069.9609375,31052.6875,27803.232421875,39203.83984375,38468.65234375,100,CROSS,1
2026-07-28 09:15:12.545578,1309.1478000005736,44081.50390625,31068.28125,27808.001953125,39212.515625,38480.19140625,100,CROSS,1
2026-07-28 09:15:12.545578,1311.1478000000716,44102.484375,31089.166015625,27823.927734375,39232.640625,38501.36328125,100,CROSS,1
2026-07-28 09:15:12.545578,1313.147800000479,44105.9140625,31089.0234375,27828.361328125,39236.40625,38505.51171875,100,CROSS,1
2026-07-28 09:15:12.545578,1315.1478000008865,44100.57421875,31083.96875,27822.783203125,39230.3046875,38502.36328125,100,CROSS,1
2026-07-28 09:15:12.545578,1317.1478000003844,44103.4375,31084.826171875,27828.88671875,39234.0703125,38505.796875,100,CROSS,1
2026-07-28 09:15:12.545578,1319.147800000792,44089.46484375,31068.376953125,27823.83203125,39223.33984375,38488.8203125,100,CROSS,1
2026-07-28 09:15:12.545578,1321.1478000002899,44073.30078125,31054.0234375,27810.95703125,39209.0859375,38471.1328125,100,CROSS,1
2026-07-28 09:15:12.545578,1323.1478000006973,44078.59375,31062.3671875,27815.01171875,39214.85546875,38478.046875,100,CROSS,1
2026-07-28 09:15:12.545578,1325.1478000001953,44080.9765625,31069.94921875,27809.908203125,39215.37890625,38481.859375,100,CROSS,1
2026-07-28 09:15:12.545578,1327.1478000006027,44087.60546875,31076.244140625,27811.625,39220.05078125,38489.7265625,100,CROSS,1
2026-07-28 09:15:12.545578,1329.1478000001007,44089.94140625,31076.625,27814.916015625,39223.4375,38492.3984375,100,CROSS,1
2026-07-28 09:15:12.545578,1331.1478000005081,44090.46484375,31077.72265625,27816.01171875,39224.10546875,38496.0703125,100,CROSS,1
2026-07-28 09:15:12.561801,1333.1478000009156,44085.31640625,31071.80859375,27813.341796875,39221.671875,38491.68359375,100,CROSS,1
2026-07-28 09:15:12.561801,1335.1478000004136,44075.16015625,31058.83984375,27805.427734375,39212.13671875,38477.99609375,100,CROSS,1
2026-07-28 09:15:12.561801,1337.147800000821,44066.95703125,31050.876953125,27800.705078125,39203.93359375,38468.31640625,100,CROSS,1
2026-07-28 09:15:12.561801,1339.147800000319,44065.43359375,31053.1171875,27801.46875,39203.98046875,38469.26953125,100,CROSS,1
2026-07-28 09:15:12.561801,1341.1478000007264,44072.30078125,31064.943359375,27804.091796875,39210.609375,38479.71484375,100,CROSS,1
2026-07-28 09:15:12.561801,1343.1478000002244,44089.37109375,31082.6328125,27817.109375,39226.203125,38499.359375,100,CROSS,1
2026-07-28 09:15:12.561801,1345.1478000006318,44087.69921875,31080.05859375,27817.34765625,39225.390625,38499.16796875,100,CROSS,1
2026-07-28 09:15:12.561801,1347.1478000001298,44083.7890625,31074.908203125,27813.390625,39222.1953125,38495.6875,100,CROSS,1
2026-07-28 09:15:12.561801,1349.1478000005372,44077.01953125,31065.849609375,27806.09375,39215.37890625,38489.7265625,100,CROSS,1
2026-07-28 09:15:12.561801,1351.1478000009447,44070.390625,31057.02734375,27801.66015625,39210.9921875,38480.953125,100,CROSS,1
2026-07-28 09:15:12.561801,1353.1478000004427,44074.921875,31058.83984375,27810.2890625,39215.94921875,38480.5703125,100,CROSS,1
2026-07-28 09:15:12.578429,1355.1477999999406,44062.23828125,31047.060546875,27800.515625,39203.12109375,38466.88671875,100,CROSS,1
2026-07-28 09:15:12.578429,1357.147800000348,44060.234375,31050.16015625,27795.4609375,39199.40234375,38466.88671875,100,CROSS,1
2026-07-28 09:15:12.578429,1359.1478000007555,44066.91015625,31059.220703125,27795.4609375,39203.93359375,38475.328125,100,CROSS,1
2026-07-28 09:15:12.578429,1361.1478000002535,44080.69140625,31073.240234375,27798.798828125,39215.234375,38487.24609375,100,CROSS,1
2026-07-28 09:15:12.578429,1363.147800000661,44100.57421875,31089.880859375,27818.73046875,39234.83203125,38507.75390625,100,CROSS,1
2026-07-28 09:15:12.578429,1365.147800000159,44088.2265625,31076.1484375,27813.103515625,39224.58203125,38497.0703125,100,CROSS,1
2026-07-28 09:15:12.594918,1367.1478000005663,44074.25390625,31059.888671875,27800.943359375,39211.32421875,38479.5703125,100,CROSS,1
2026-07-28 09:15:12.594918,1369.1478000000643,44069.4375,31055.8359375,27799.80078125,39209.1796875,38472.94140625,100,CROSS,1
2026-07-28 09:15:12.594918,1371.1478000004718,44065.05078125,31050.58984375,27798.369140625,39204.31640625,38467.41015625,100,CROSS,1
2026-07-28 09:15:12.594918,1373.1477999999697,44067.76953125,31052.974609375,27800.5625,39206.55859375,38470.3671875,100,CROSS,1
2026-07-28 09:15:12.594918,1375.1478000003772,44064.90625,31055.64453125,27794.935546875,39204.36328125,38471.703125,100,CROSS,1
2026-07-28 09:15:12.594918,1377.1478000007846,44084.41015625,31076.1484375,27809.57421875,39221.1015625,38491.4453125,100,CROSS,1
2026-07-28 09:15:12.594918,1379.1478000002826,44092.9453125,31082.775390625,27816.345703125,39227.5390625,38498.8359375,100,CROSS,1
2026-07-28 09:15:12.594918,1381.14780000069,44094.08984375,31084.111328125,27818.634765625,39229.77734375,38502.6484375,100,CROSS,1
2026-07-28 09:15:12.594918,1383.147800000188,44097.23828125,31085.11328125,27822.544921875,39234.59375,38505.12890625,100,CROSS,1
2026-07-28 09:15:12.594918,1385.1478000005955,44090.0859375,31073.525390625,27818.109375,39228.34765625,38494.16015625,100,CROSS,1
2026-07-28 09:15:12.611604,1387.1478000000934,44088.4140625,31068.376953125,27821.400390625,39226.01171875,38486.0546875,100,CROSS,1
2026-07-28 09:15:12.611604,1389.1478000005009,44080.453125,31060.984375,27813.341796875,39215.37890625,38474.75390625,100,CROSS,1
2026-07-28 09:15:12.611604,1391.1477999999988,44081.359375,31064.84765625,27811.578125,39214.51953125,38477.47265625,100,CROSS,1
2026-07-28 09:15:12.611604,1393.1478000004063,44101.86328125,31087.44921875,27827.646484375,39232.49609375,38500.12109375,100,CROSS,1
2026-07-28 09:15:12.611604,1395.1478000008137,44104.296875,31090.119140625,27827.88671875,39235.0703125,38503.84375,100,CROSS,1
2026-07-28 09:15:12.611604,1397.1478000003117,44103.9609375,31090.40625,27828.123046875,39234.30859375,38505.69921875,100,CROSS,1
2026-07-28 09:15:12.611604,1399.1478000007191,44098.859375,31086.2578125,27824.119140625,39229.16015625,38502.79296875,100,CROSS,1
2026-07-28 09:15:12.611604,1401.147800000217,44095.85546875,31081.44140625,27823.546875,39228.87109375,38497.64453125,100,CROSS,1
2026-07-28 09:15:12.611604,1403.1478000006246,44098.76171875,31082.203125,27832.845703125,39235.26171875,38499.3125,100,CROSS,1
2026-07-28 09:15:12.611604,1405.1478000001225,44077.78125,31062.4140625,27817.15625,39215.51953125,38476.56640625,100,CROSS,1
2026-07-28 09:15:12.627587,1407.14780000053,44072.6796875,31062.271484375,27806.427734375,39209.3203125,38472.5625,100,CROSS,1
2026-07-28 09:15:12.627587,1409.147800000028,44079.0234375,31071.474609375,27806.380859375,39213.7109375,38480.71484375,100,CROSS,1
2026-07-28 09:15:12.627587,1411.1478000004354,44095.1875,31085.923828125,27818.4921875,39228.34765625,38497.8359375,100,CROSS,1
2026-07-28 09:15:12.627587,1413.1478000008428,44103.0546875,31091.169921875,27829.078125,39237.64453125,38506.46484375,100,CROSS,1
2026-07-28 09:15:12.627587,1415.1478000003408,44090.41796875,31080.8203125,27820.3515625,39228.34765625,38497.453125,100,CROSS,1
2026-07-28 09:15:12.627587,1417.1478000007482,44082.7421875,31071.427734375,27812.76953125,39222.72265625,38487.34375,100,CROSS,1
2026-07-28 09:15:12.644370,1419.1478000002462,44077.59375,31062.98828125,27810.052734375,39218.71484375,38478.140625,100,CROSS,1
2026-07-28 09:15:12.644370,1421.1478000006537,44073.39453125,31056.455078125,27808.57421875,39212.375,38470.2265625,100,CROSS,1
2026-07-28 09:15:12.644370,1423.1478000001516,44077.3515625,31064.560546875,27810.2890625,39216.33203125,38475.56640625,100,CROSS,1
2026-07-28 09:15:12.644370,1425.147800000559,44088.75,31077.53125,27818.205078125,39225.48828125,38489.15625,100,CROSS,1
2026-07-28 09:15:12.644370,1427.147800000057,44099.765625,31087.783203125,27825.21484375,39232.828125,38500.83984375,100,CROSS,1
2026-07-28 09:15:12.644370,1429.1478000004645,44104.62890625,31091.646484375,27830.26953125,39238.171875,38506.65625,100,CROSS,1
2026-07-28 09:15:12.644370,1431.147800000872,44103.0546875,31091.693359375,27829.458984375,39236.69140625,38507.37109375,100,CROSS,1
2026-07-28 09:15:12.644370,1433.14780000037,44100.1953125,31088.974609375,27828.314453125,39235.26171875,38505.3671875,100,CROSS,1
2026-07-28 09:15:12.644370,1435.1478000007774,44094.56640625,31082.109375,27827.123046875,39231.54296875,38498.453125,100,CROSS,1
2026-07-28 09:15:12.661411,1437.1478000002753,44082.93359375,31069.044921875,27818.396484375,39220.3359375,38483.81640625,100,CROSS,1
2026-07-28 09:15:12.661411,1439.1478000006828,44078.734375,31067.564453125,27816.345703125,39216.4765625,38480.3828125,100,CROSS,1
2026-07-28 09:15:12.661411,1441.1478000001807,44089.03515625,31080.630859375,27823.35546875,39225.48828125,38491.39453125,100,CROSS,1
2026-07-28 09:15:12.661411,1443.1478000005882,44095.1875,31090.21484375,27822.068359375,39229.58984375,38498.78515625,100,CROSS,1
2026-07-28 09:15:12.661411,1445.1478000000861,44095.42578125,31088.498046875,27821.06640625,39230.4453125,38500.40625,100,CROSS,1
2026-07-28 09:15:12.661411,1447.1478000004936,44092.46875,31084.111328125,27820.16015625,39227.203125,38499.7890625,100,CROSS,1
2026-07-28 09:15:12.661411,1449.147800000901,44094.13671875,31083.77734375,27820.638671875,39227.91796875,38501.6953125,100,CROSS,1
2026-07-28 09:15:12.661411,1451.147800000399,44093.328125,31077.912109375,27821.78125,39228.015625,38497.69140625,100,CROSS,1
2026-07-28 09:15:12.661411,1453.1478000008065,44084.078125,31066.8984375,27816.44140625,39220.71875,38484.625,100,CROSS,1
2026-07-28 09:15:12.661411,1455.1478000003044,44075.5390625,31057.7421875,27809.48046875,39210.9921875,38474.5625,100,CROSS,1
2026-07-28 09:15:12.677592,1457.1478000007119,44073.015625,31056.359375,27805.759765625,39207.65234375,38473.84765625,100,CROSS,1
2026-07-28 09:15:12.693935,1459.1478000002098,44077.54296875,31064.322265625,27800.419921875,39209.0859375,38476.08984375,100,CROSS,1
2026-07-28 09:15:12.693935,1461.1478000006173,44103.29296875,31090.548828125,27822.1640625,39234.21484375,38501.21875,100,CROSS,1
2026-07-28 09:15:12.693935,1463.1478000001152,44094.47265625,31080.392578125,27816.6796875,39227.44140625,38494.6875,100,CROSS,1
2026-07-28 09:15:12.693935,1465.1478000005227,44086.74609375,31074.00390625,27808.955078125,39221.1484375,38489.87109375,100,CROSS,1
2026-07-28 09:15:12.693935,1467.1478000009301,44083.36328125,31068.7578125,27805.998046875,39217.4296875,38485.72265625,100,CROSS,1
2026-07-28 09:15:12.693935,1469.147800000428,44082.02734375,31064.275390625,27808.716796875,39216.6171875,38479.37890625,100,CROSS,1
2026-07-28 09:15:12.693935,1471.147799999926,44082.59765625,31064.943359375,27812.435546875,39216.71484375,38478.33203125,100,CROSS,1
2026-07-28 09:15:12.693935,1473.1478000003335,44078.0703125,31064.41796875,27806.33203125,39212.8984375,38475.375,100,CROSS,1
2026-07-28 09:15:12.693935,1475.147800000741,44081.73828125,31067.70703125,27804.94921875,39213.328125,38478.42578125,100,CROSS,1
2026-07-28 09:15:12.693935,1477.147800000239,44091.1328125,31076.86328125,27811.29296875,39221.00390625,38487.7265625,100,CROSS,1
2026-07-28 09:15:12.693935,1479.1478000006464,44090.75390625,31077.435546875,27812.53125,39222.91015625,38488.91796875,100,CROSS,1
2026-07-28 09:15:12.693935,1481.1478000001443,44093.8984375,31082.919921875,27815.48828125,39229.109375,38496.30859375,100,CROSS,1
2026-07-28 09:15:12.693935,1483.1478000005518,44088.03515625,31076.1015625,27810.2890625,39224.9140625,38490.44140625,100,CROSS,1
2026-07-28 09:15:12.710492,1485.1478000000498,44081.50390625,31064.80078125,27805.6171875,39219.52734375,38480.4296875,100,CROSS,1
2026-07-28 09:15:12.710492,1487.1478000004572,44078.640625,31060.26953125,27806.5703125,39218.62109375,38475.56640625,100,CROSS,1
2026-07-28 09:15:12.710492,1489.1477999999552,44075.16015625,31059.458984375,27805.759765625,39215.6640625,38472.703125,100,CROSS,1
2026-07-28 09:15:12.710492,1491.1478000003626,44086.4140625,31072.142578125,27816.107421875,39225.390625,38485.24609375,100,CROSS,1
2026-07-28 09:15:12.710492,1493.14780000077,44091.0390625,31079.009765625,27815.6796875,39228.15625,38489.7734375,100,CROSS,1
2026-07-28 09:15:12.710492,1495.147800000268,44098.57421875,31084.4921875,27819.064453125,39233.1640625,38496.44921875,100,CROSS,1
2026-07-28 09:15:12.710492,1497.1478000006755,44103.0078125,31088.546875,27824.78515625,39238.171875,38503.74609375,100,CROSS,1
2026-07-28 09:15:12.710492,1499.1478000001734,44098.8125,31083.634765625,27821.2109375,39234.0703125,38498.359375,100,CROSS,1
2026-07-28 09:15:12.727356,1501.147800000581,44095.90234375,31079.34375,27820.3515625,39231.49609375,38493.11328125,100,CROSS,1
2026-07-28 09:15:12.727356,1503.1478000000789,44095.90234375,31075.91015625,27823.927734375,39232.87890625,38489.6328125,100,CROSS,1
2026-07-28 09:15:12.727356,1505.1478000004863,44090.80078125,31069.853515625,27824.642578125,39228.82421875,38484.72265625,100,CROSS,1
2026-07-28 09:15:12.727356,1507.1477999999843,44078.01953125,31064.1796875,27811.625,39217.046875,38476.04296875,100,CROSS,1
2026-07-28 09:15:12.727356,1509.1478000003917,44092.66015625,31081.583984375,27816.822265625,39228.4921875,38491.15625,100,CROSS,1
2026-07-28 09:15:12.727356,1511.1478000007992,44110.875,31098.03515625,27830.26953125,39242.46484375,38506.84765625,100,CROSS,1
2026-07-28 09:15:12.727356,1513.1478000002971,44101.52734375,31088.642578125,27820.255859375,39231.97265625,38499.16796875,100,CROSS,1
2026-07-28 09:15:12.727356,1515.1478000007046,44093.66015625,31083.015625,27814.677734375,39225.53515625,38495.734375,100,CROSS,1
2026-07-28 09:15:12.727356,1517.1478000002026,44092.375,31078.4375,27815.6796875,39224.296875,38491.5859375,100,CROSS,1
2026-07-28 09:15:12.744039,1519.14780000061,44091.18359375,31073.763671875,27819.63671875,39224.9140625,38486.76953125,100,CROSS,1
2026-07-28 09:15:12.744039,1521.147800000108,44088.46484375,31071.5703125,27820.685546875,39223.8671875,38484.2421875,100,CROSS,1
2026-07-28 09:15:12.744039,1523.1478000005154,44089.51171875,31074.05078125,27821.2578125,39224.9140625,38485.33984375,100,CROSS,1
2026-07-28 09:15:12.744039,1525.1478000000134,44097.23828125,31084.873046875,27828.6015625,39233.44921875,38497.30859375,100,CROSS,1
2026-07-28 09:15:12.744039,1527.1478000004208,44109.96875,31099.2265625,27834.84765625,39244.98828125,38509.9453125,100,CROSS,1
2026-07-28 09:15:12.744039,1529.1478000008283,44116.40625,31105.044921875,27839.99609375,39251.90234375,38518.00390625,100,CROSS,1
2026-07-28 09:15:12.744039,1531.1478000003262,44115.453125,31104.94921875,27840.568359375,39253.19140625,38520.76953125,100,CROSS,1
2026-07-28 09:15:12.760593,1533.1478000007337,44095.28125,31084.111328125,27825.740234375,39235.59765625,38502.078125,100,CROSS,1
2026-07-28 09:15:12.760593,1535.1478000002317,44084.36328125,31071.5703125,27819.3984375,39226.7265625,38488.6796875,100,CROSS,1
2026-07-28 09:15:12.760593,1537.147800000639,44079.78515625,31066.611328125,27816.822265625,39223.24609375,38480.09375,100,CROSS,1
2026-07-28 09:15:12.760593,1539.147800000137,44065.86328125,31054.166015625,27801.515625,39208.94140625,38466.265625,100,CROSS,1
2026-07-28 09:15:12.760593,1541.1478000005445,44077.3515625,31067.8046875,27808.859375,39219.95703125,38481.57421875,100,CROSS,1
2026-07-28 09:15:12.760593,1543.1478000000425,44083.07421875,31075.71875,27808.669921875,39224.19921875,38488.91796875,100,CROSS,1
2026-07-28 09:15:12.760593,1545.14780000045,44093.66015625,31085.494140625,27816.01171875,39233.546875,38500.02734375,100,CROSS,1
2026-07-28 09:15:12.760593,1547.1478000008574,44098.046875,31087.830078125,27819.779296875,39236.12109375,38504.55859375,100,CROSS,1
2026-07-28 09:15:12.809548,1549.1478000003553,44098.28515625,31086.400390625,27819.732421875,39234.1171875,38503.9375,100,CROSS,1
2026-07-28 09:15:12.809548,1551.1478000007628,44098.28515625,31083.30078125,27825.025390625,39234.640625,38500.93359375,100,CROSS,1
2026-07-28 09:15:12.809548,1553.1478000002608,44081.16796875,31063.98828125,27811.86328125,39219.671875,38480.0,100,CROSS,1
2026-07-28 09:15:12.809548,1555.1478000006682,44074.5390625,31059.458984375,27808.859375,39215.37890625,38473.80078125,100,CROSS,1
2026-07-28 09:15:12.809548,1557.1478000001662,44068.24609375,31055.119140625,27800.515625,39209.0859375,38469.3203125,100,CROSS,1
2026-07-28 09:15:12.809548,1559.1478000005736,44087.3203125,31075.52734375,27811.005859375,39225.8203125,38489.296875,100,CROSS,1
2026-07-28 09:15:12.809548,1561.1478000000716,44106.5859375,31092.50390625,27828.21875,39243.75,38508.32421875,100,CROSS,1
2026-07-28 09:15:12.809548,1563.147800000479,44094.234375,31082.6328125,27816.822265625,39234.35546875,38497.40234375,100,CROSS,1
2026-07-28 09:15:12.809548,1565.1478000008865,44101.76953125,31091.978515625,27821.97265625,39244.37109375,38506.1796875,100,CROSS,1
2026-07-28 09:15:12.809548,1567.1478000003844,44102.72265625,31087.068359375,27825.548828125,39247.8984375,38505.2734375,100,CROSS,1
2026-07-28 09:15:12.825813,1569.147800000792,44101.05078125,31080.439453125,27831.12890625,39245.46875,38499.21484375,100,CROSS,1
2026-07-28 09:15:12.825813,1571.1478000002899,44085.31640625,31066.23046875,27820.732421875,39230.3046875,38480.3828125,100,CROSS,1
2026-07-28 09:15:12.825813,1573.1478000006973,44081.16796875,31064.41796875,27814.390625,39225.53515625,38477.6640625,100,CROSS,1
2026-07-28 09:15:12.825813,1575.1478000001953,44097.19140625,31082.443359375,27825.025390625,39237.7890625,38495.35546875,100,CROSS,1
2026-07-28 09:15:12.825813,1577.1478000006027,44111.63671875,31098.03515625,27833.51171875,39250.51953125,38509.8515625,100,CROSS,1
2026-07-28 09:15:12.825813,1579.1478000001007,44116.40625,31100.658203125,27839.376953125,39252.859375,38513.7109375,100,CROSS,1
2026-07-28 09:15:12.825813,1581.1478000005081,44105.24609375,31090.072265625,27829.935546875,39240.79296875,38504.26953125,100,CROSS,1
2026-07-28 09:15:12.825813,1583.1478000009156,44101.48046875,31085.20703125,27826.025390625,39237.12109375,38499.265625,100,CROSS,1
2026-07-28 09:15:12.825813,1585.1478000004136,44095.6640625,31077.53125,27822.115234375,39230.25390625,38487.34375,100,CROSS,1
2026-07-28 09:15:12.825813,1587.147800000821,44090.0859375,31069.47265625,27821.11328125,39224.58203125,38478.42578125,100,CROSS,1
2026-07-28 09:15:12.825813,1589.147800000319,44087.3671875,31067.517578125,27822.01953125,39222.72265625,38477.56640625,100,CROSS,1
2026-07-28 09:15:12.825813,1591.1478000007264,44078.734375,31063.845703125,27808.478515625,39213.421875,38471.98828125,100,CROSS,1
2026-07-28 09:15:12.825813,1593.1478000002244,44089.84765625,31079.19921875,27810.48046875,39222.0078125,38485.0078125,100,CROSS,1
2026-07-28 09:15:12.825813,1595.1478000006318,44104.390625,31094.029296875,27823.9765625,39236.9296875,38503.22265625,100,CROSS,1
2026-07-28 09:15:12.825813,1597.1478000001298,44103.67578125,31092.599609375,27826.455078125,39236.7890625,38504.3203125,100,CROSS,1
2026-07-28 09:15:12.825813,1599.1478000005372,44101.71875,31090.21484375,27827.02734375,39235.64453125,38503.65234375,100,CROSS,1
2026-07-28 09:15:12.842887,1601.1478000009447,44089.98828125,31078.62890625,27816.107421875,39225.96484375,38490.6328125,100,CROSS,1
2026-07-28 09:15:12.842887,1603.1478000004427,44095.90234375,31083.158203125,27824.21484375,39233.01953125,38494.3984375,100,CROSS,1
2026-07-28 09:15:12.842887,1605.1477999999406,44089.37109375,31075.671875,27820.732421875,39225.9140625,38485.9140625,100,CROSS,1
2026-07-28 09:15:12.842887,1607.147800000348,44085.6484375,31074.384765625,27817.681640625,39223.15234375,38484.9609375,100,CROSS,1
2026-07-28 09:15:12.842887,1609.1478000007555,44094.51953125,31086.638671875,27824.0703125,39231.54296875,38496.44921875,100,CROSS,1
2026-07-28 09:15:12.842887,1611.1478000002535,44102.86328125,31093.123046875,27827.361328125,39238.21875,38504.17578125,100,CROSS,1
2026-07-28 09:15:12.842887,1613.147800000661,44108.921875,31096.84375,27837.08984375,39245.80078125,38511.421875,100,CROSS,1
2026-07-28 09:15:12.842887,1615.147800000159,44091.609375,31082.966796875,27821.591796875,39231.2109375,38496.40234375,100,CROSS,1
2026-07-28 09:15:12.842887,1617.1478000005663,44078.6875,31068.7109375,27807.90625,39217.66796875,38482.09765625,100,CROSS,1
2026-07-28 09:15:12.842887,1619.1478000000643,44081.73828125,31067.947265625,27810.861328125,39220.765625,38479.28515625,100,CROSS,1
2026-07-28 09:15:12.842887,1621.1478000004718,44075.5390625,31060.173828125,27807.19140625,39213.99609375,38469.55859375,100,CROSS,1
2026-07-28 09:15:12.842887,1623.1477999999697,44073.6328125,31058.6015625,27804.521484375,39210.515625,38466.36328125,100,CROSS,1
2026-07-28 09:15:12.842887,1625.1478000003772,44085.74609375,31071.236328125,27810.43359375,39219.71875,38478.5234375,100,CROSS,1
2026-07-28 09:15:12.858789,1627.1478000007846,44095.51953125,31082.251953125,27815.345703125,39226.44140625,38488.10546875,100,CROSS,1
2026-07-28 09:15:12.858789,1629.1478000002826,44103.0546875,31088.642578125,27823.451171875,39233.87890625,38496.87890625,100,CROSS,1
2026-07-28 09:15:12.858789,1631.14780000069,44092.70703125,31080.91796875,27813.4375,39224.4375,38489.25,100,CROSS,1
2026-07-28 09:15:12.858789,1633.147800000188,44096.94921875,31084.20703125,27817.681640625,39228.25390625,38493.3515625,100,CROSS,1
2026-07-28 09:15:12.858789,1635.1478000005955,44095.7578125,31079.58203125,27822.44921875,39229.921875,38489.96484375,100,CROSS,1
2026-07-28 09:15:12.858789,1637.1478000000934,44093.328125,31076.291015625,27825.931640625,39229.25390625,38485.24609375,100,CROSS,1
2026-07-28 09:15:12.858789,1639.1478000005009,44092.56640625,31074.955078125,27827.50390625,39226.10546875,38485.1953125,100,CROSS,1
2026-07-28 09:15:12.858789,1641.1477999999988,44088.1796875,31074.478515625,27821.3046875,39221.91015625,38484.2421875,100,CROSS,1
2026-07-28 09:15:12.875630,1643.1478000004063,44096.76171875,31087.6875,27820.970703125,39228.4453125,38494.78125,100,CROSS,1
2026-07-28 09:15:12.875630,1645.1478000008137,44106.96484375,31096.84375,27827.98046875,39239.6953125,38505.98828125,100,CROSS,1
2026-07-28 09:15:12.875630,1647.1478000003117,44100.2890625,31090.21484375,27822.92578125,39233.83203125,38500.98046875,100,CROSS,1
2026-07-28 09:15:12.875630,1649.1478000007191,44107.109375,31095.650390625,27828.83984375,39240.6015625,38508.89453125,100,CROSS,1
2026-07-28 09:15:12.875630,1651.147800000217,44091.5625,31077.29296875,27817.490234375,39227.34765625,38491.15625,100,CROSS,1
2026-07-28 09:15:12.875630,1653.1478000006246,44081.0234375,31067.087890625,27812.1015625,39218.0,38478.09375,100,CROSS,1
2026-07-28 09:15:12.875630,1655.1478000001225,44079.59375,31066.134765625,27811.529296875,39216.4765625,38475.8046875,100,CROSS,1
2026-07-28 09:15:12.875630,1657.14780000053,44078.44921875,31067.421875,27807.810546875,39215.6640625,38476.8046875,100,CROSS,1
2026-07-28 09:15:12.875630,1659.147800000028,44100.3359375,31092.07421875,27822.6875,39236.55078125,38499.98046875,100,CROSS,1
2026-07-28 09:15:12.875630,1661.1478000004354,44109.30078125,31102.13671875,27831.12890625,39246.84765625,38511.421875,100,CROSS,1
2026-07-28 09:15:12.909233,1663.1478000008428,44103.53125,31094.5546875,27828.267578125,39242.46484375,38509.515625,100,CROSS,1
2026-07-28 09:15:12.909233,1665.1478000003408,44097.046875,31090.310546875,27821.6875,39236.64453125,38505.796875,100,CROSS,1
2026-07-28 09:15:12.909233,1667.1478000007482,44099.00390625,31092.408203125,27826.07421875,39239.79296875,38506.41796875,100,CROSS,1
2026-07-28 09:15:12.909233,1669.1478000002462,44104.7734375,31094.697265625,27837.564453125,39245.32421875,38509.27734375,100,CROSS,1
2026-07-28 09:15:12.909233,1671.1478000006537,44083.6015625,31074.57421875,27821.97265625,39225.390625,38486.72265625,100,CROSS,1
2026-07-28 09:15:12.909233,1673.1478000001516,44080.9296875,31073.62109375,27817.203125,39219.765625,38484.43359375,100,CROSS,1
2026-07-28 09:15:12.909233,1675.147800000559,44084.078125,31080.630859375,27812.197265625,39220.43359375,38489.48828125,100,CROSS,1
2026-07-28 09:15:12.909233,1677.147800000057,44099.3828125,31095.650390625,27822.736328125,39235.73828125,38506.2265625,100,CROSS,1
2026-07-28 09:15:12.909233,1679.1478000004645,44110.11328125,31101.46875,27832.892578125,39245.89453125,38516.4296875,100,CROSS,1
2026-07-28 09:15:12.909233,1681.147800000872,44099.14453125,31091.263671875,27822.6875,39235.69140625,38506.1796875,100,CROSS,1
2026-07-28 09:15:12.909233,1683.14780000037,44101.1015625,31092.169921875,27825.16796875,39239.078125,38506.796875,100,CROSS,1
2026-07-28 09:15:12.909233,1685.1478000007774,44107.53515625,31092.3125,27834.84765625,39245.27734375,38507.75390625,100,CROSS,1
2026-07-28 09:15:12.909233,1687.1478000002753,44101.43359375,31082.87109375,27834.703125,39240.6015625,38498.0234375,100,CROSS,1
2026-07-28 09:15:12.926381,1689.1478000006828,44092.66015625,31075.671875,27826.884765625,39231.92578125,38488.91796875,100,CROSS,1
2026-07-28 09:15:12.926381,1691.1478000001807,44091.27734375,31075.671875,27818.68359375,39227.39453125,38486.0078125,100,CROSS,1
2026-07-28 09:15:12.926381,1693.1478000005882,44100.48046875,31086.162109375,27823.59375,39234.26171875,38494.3984375,100,CROSS,1
2026-07-28 09:15:12.926381,1695.1478000000861,44100.43359375,31087.068359375,27819.921875,39236.55078125,38494.6875,100,CROSS,1
2026-07-28 09:15:12.926381,1697.1478000004936,44109.16015625,31096.84375,27826.740234375,39245.65625,38504.9375,100,CROSS,1
2026-07-28 09:15:12.926381,1699.147800000901,44096.046875,31082.775390625,27819.3984375,39233.01953125,38495.06640625,100,CROSS,1
2026-07-28 09:15:12.926381,1701.147800000399,44090.65625,31077.0546875,27816.91796875,39228.73046875,38489.296875,100,CROSS,1
2026-07-28 09:15:12.926381,1703.1478000008065,44086.03125,31069.091796875,27814.15234375,39223.8671875,38479.85546875,100,CROSS,1
2026-07-28 09:15:12.926381,1705.1478000003044,44079.21484375,31062.701171875,27810.146484375,39216.76171875,38472.2734375,100,CROSS,1
2026-07-28 09:15:12.926381,1707.1478000007119,44090.5625,31077.673828125,27821.06640625,39226.87109375,38486.24609375,100,CROSS,1
2026-07-28 09:15:12.926381,1709.1478000002098,44095.6640625,31086.830078125,27821.78125,39230.16015625,38493.3046875,100,CROSS,1
2026-07-28 09:15:12.926381,1711.1478000006173,44103.9609375,31093.93359375,27825.310546875,39236.64453125,38500.98046875,100,CROSS,1
2026-07-28 09:15:12.926381,1713.1478000001152,44097.4765625,31086.685546875,27817.30078125,39230.015625,38494.3984375,100,CROSS,1
2026-07-28 09:15:12.926381,1715.1478000005227,44095.85546875,31089.451171875,27816.345703125,39231.2578125,38495.92578125,100,CROSS,1
2026-07-28 09:15:12.942815,1717.1478000009301,44101.671875,31088.498046875,27824.548828125,39237.12109375,38500.21875,100,CROSS,1
2026-07-28 09:15:12.942815,1719.147800000428,44083.7421875,31068.99609375,27812.1015625,39221.00390625,38480.5703125,100,CROSS,1
2026-07-28 09:15:12.942815,1721.147799999926,44080.0234375,31066.70703125,27810.623046875,39218.90625,38476.18359375,100,CROSS,1
2026-07-28 09:15:12.942815,1723.1478000003335,44076.3046875,31065.515625,27806.904296875,39215.85546875,38476.61328125,100,CROSS,1
2026-07-28 09:15:12.942815,1725.147800000741,44080.9765625,31074.955078125,27807.19140625,39218.859375,38483.48046875,100,CROSS,1
2026-07-28 09:15:12.958851,1727.147800000239,44102.43359375,31096.9375,27823.59375,39239.5546875,38506.796875,100,CROSS,1
2026-07-28 09:15:12.958851,1729.1478000006464,44101.05078125,31093.02734375,27823.78515625,39239.02734375,38505.84375,100,CROSS,1
2026-07-28 09:15:12.958851,1731.1478000001443,44095.99609375,31089.21484375,27817.87109375,39235.64453125,38502.21875,100,CROSS,1
2026-07-28 09:15:12.958851,1733.1478000005518,44101.1484375,31093.361328125,27824.9296875,39240.984375,38508.89453125,100,CROSS,1
2026-07-28 09:15:12.958851,1735.1478000000498,44094.56640625,31084.73046875,27823.880859375,39238.07421875,38499.8359375,100,CROSS,1
2026-07-28 09:15:12.958851,1737.1478000004572,44096.28515625,31083.25390625,27828.552734375,39240.4609375,38497.78515625,100,CROSS,1
2026-07-28 09:15:12.958851,1739.1477999999552,44088.2734375,31076.625,27822.44921875,39232.54296875,38491.82421875,100,CROSS,1
2026-07-28 09:15:12.958851,1741.1478000003626,44082.02734375,31072.048828125,27813.294921875,39224.9140625,38485.76953125,100,CROSS,1
2026-07-28 09:15:12.958851,1743.14780000077,44081.265625,31074.955078125,27808.478515625,39222.1484375,38486.72265625,100,CROSS,1
2026-07-28 09:15:12.958851,1745.147800000268,44089.703125,31083.109375,27814.630859375,39230.875,38496.9296875,100,CROSS,1
2026-07-28 09:15:12.974475,1747.1478000006755,44105.19921875,31098.560546875,27831.84375,39246.1328125,38514.33203125,100,CROSS,1
2026-07-28 09:15:12.974475,1749.1478000001734,44086.26953125,31080.154296875,27813.9140625,39226.25,38494.78125,100,CROSS,1
2026-07-28 09:15:12.974475,1751.147800000581,44079.9296875,31073.001953125,27808.3828125,39220.38671875,38486.4375,100,CROSS,1
2026-07-28 09:15:12.974475,1753.1478000000789,44076.16015625,31068.04296875,27807.525390625,39217.046875,38479.37890625,100,CROSS,1
2026-07-28 09:15:12.974475,1755.1478000004863,44070.6796875,31062.60546875,27802.994140625,39209.98828125,38471.3671875,100,CROSS,1
2026-07-28 09:15:12.974475,1757.1477999999843,44078.9765625,31071.33203125,27808.240234375,39214.85546875,38480.0,100,CROSS,1
2026-07-28 09:15:12.974475,1759.1478000003917,44081.07421875,31077.484375,27805.951171875,39216.28515625,38484.86328125,100,CROSS,1
2026-07-28 09:15:12.990712,1761.1478000007992,44090.32421875,31085.923828125,27809.765625,39223.1015625,38493.4453125,100,CROSS,1
2026-07-28 09:15:12.990712,1763.1478000002971,44095.1875,31089.69140625,27813.9140625,39226.87109375,38498.8828125,100,CROSS,1
2026-07-28 09:15:12.990712,1765.1478000007046,44091.421875,31086.830078125,27812.29296875,39224.4375,38497.9765625,100,CROSS,1
2026-07-28 09:15:12.990712,1767.1478000002026,44091.0859375,31084.541015625,27817.34765625,39226.6796875,38498.12109375,100,CROSS,1
2026-07-28 09:15:12.990712,1769.14780000061,44083.7890625,31075.2890625,27815.392578125,39223.33984375,38488.44140625,100,CROSS,1
2026-07-28 09:15:12.990712,1771.147800000108,44078.30859375,31067.947265625,27810.861328125,39215.94921875,38477.51953125,100,CROSS,1
2026-07-28 09:15:12.990712,1773.1478000005154,44086.4140625,31076.33984375,27817.203125,39221.9609375,38485.24609375,100,CROSS,1
2026-07-28 09:15:12.990712,1775.1478000000134,44090.5625,31082.30078125,27817.15625,39225.25,38491.82421875,100,CROSS,1
2026-07-28 09:15:12.990712,1777.1478000004208,44109.25390625,31101.373046875,27832.98828125,39244.0859375,38512.37890625,100,CROSS,1
2026-07-28 09:15:13.007233,1779.1478000008283,44109.0625,31098.703125,27833.41796875,39243.75,38512.234375,100,CROSS,1
2026-07-28 09:15:13.007233,1781.1478000003262,44097.140625,31088.068359375,27820.3046875,39232.44921875,38501.45703125,100,CROSS,1
2026-07-28 09:15:13.007233,1783.1478000007337,44103.4375,31094.076171875,27825.357421875,39238.55078125,38505.84375,100,CROSS,1
2026-07-28 09:15:13.007233,1785.1478000002317,44097.80859375,31083.4921875,27824.9765625,39235.21484375,38497.5,100,CROSS,1
2026-07-28 09:15:13.007233,1787.147800000639,44096.28515625,31080.296875,27832.177734375,39235.453125,38495.734375,100,CROSS,1
2026-07-28 09:15:13.007233,1789.147800000137,44087.55859375,31073.669921875,27827.408203125,39227.82421875,38489.34765625,100,CROSS,1
2026-07-28 09:15:13.007233,1791.1478000005445,44081.265625,31072.5234375,27817.537109375,39222.91015625,38486.9140625,100,CROSS,1
2026-07-28 09:15:13.007233,1793.1478000000425,44091.0390625,31086.162109375,27821.447265625,39231.06640625,38498.59765625,100,CROSS,1
2026-07-28 09:15:13.007233,1795.14780000045,44095.99609375,31089.833984375,27821.591796875,39235.30859375,38503.22265625,100,CROSS,1
2026-07-28 09:15:13.007233,1797.1478000008574,44096.85546875,31089.73828125,27825.263671875,39236.359375,38507.03515625,100,CROSS,1
2026-07-28 09:15:13.023755,1799.1478000003553,44083.171875,31078.72265625,27814.248046875,39224.9140625,38496.49609375,100,CROSS,1
2026-07-28 09:15:13.023755,1801.1478000007628,44076.11328125,31068.900390625,27806.71484375,39219.09765625,38486.19921875,100,CROSS,1
2026-07-28 09:15:13.023755,1803.1478000002608,44071.01171875,31059.41015625,27801.70703125,39212.9921875,38475.375,100,CROSS,1
2026-07-28 09:15:13.023755,1805.1478000006682,44057.515625,31045.7265625,27787.736328125,39198.44921875,38458.3984375,100,CROSS,1
2026-07-28 09:15:13.023755,1807.1478000001662,44070.4375,31061.939453125,27796.509765625,39208.03515625,38472.32421875,100,CROSS,1
2026-07-28 09:15:13.039278,1809.1478000005736,44085.4609375,31080.439453125,27805.6171875,39221.578125,38489.7734375,100,CROSS,1
2026-07-28 09:15:13.039278,1811.1478000000716,44095.42578125,31090.16796875,27814.056640625,39231.97265625,38500.93359375,100,CROSS,1
2026-07-28 09:15:13.039278,1813.147800000479,44099.19140625,31095.5078125,27821.3046875,39238.171875,38508.41796875,100,CROSS,1
2026-07-28 09:15:13.039278,1815.1478000008865,44108.87109375,31105.759765625,27834.275390625,39247.9921875,38519.81640625,100,CROSS,1
2026-07-28 09:15:13.039278,1817.1478000003844,44095.47265625,31087.591796875,27827.02734375,39236.265625,38505.60546875,100,CROSS,1
2026-07-28 09:15:13.039278,1819.147800000792,44087.60546875,31076.86328125,27822.1640625,39230.875,38496.0703125,100,CROSS,1
2026-07-28 09:15:13.039278,1821.1478000002899,44082.12109375,31074.478515625,27819.20703125,39227.82421875,38490.77734375,100,CROSS,1
2026-07-28 09:15:13.039278,1823.1478000006973,44081.3125,31076.81640625,27818.0625,39227.5390625,38491.5390625,100,CROSS,1
2026-07-28 09:15:13.039278,1825.1478000001953,44086.9375,31082.013671875,27819.111328125,39229.63671875,38497.59375,100,CROSS,1
2026-07-28 09:15:13.039278,1827.1478000006027,44078.1171875,31073.048828125,27802.994140625,39218.3359375,38489.25,100,CROSS,1
2026-07-28 09:15:13.039278,1829.1478000001007,44085.22265625,31080.677734375,27807.3828125,39226.7265625,38497.546875,100,CROSS,1
2026-07-28 09:15:13.055808,1831.1478000005081,44086.84375,31082.34765625,27809.2890625,39228.77734375,38501.3125,100,CROSS,1
2026-07-28 09:15:13.055808,1833.1478000009156,44090.0859375,31083.73046875,27814.056640625,39233.59375,38504.5078125,100,CROSS,1
2026-07-28 09:15:13.055808,1835.1478000004136,44095.80859375,31083.158203125,27822.92578125,39240.03125,38504.890625,100,CROSS,1
2026-07-28 09:15:13.055808,1837.147800000821,44086.60546875,31073.287109375,27818.5390625,39231.78125,38491.82421875,100,CROSS,1
2026-07-28 09:15:13.055808,1839.147800000319,44078.30859375,31064.083984375,27811.33984375,39223.4375,38483.1953125,100,CROSS,1
2026-07-28 09:15:13.055808,1841.1478000007264,44080.21484375,31069.99609375,27809.71875,39223.1015625,38487.24609375,100,CROSS,1
2026-07-28 09:15:13.055808,1843.1478000002244,44091.66015625,31085.064453125,27815.05859375,39230.73046875,38499.8828125,100,CROSS,1
2026-07-28 09:15:13.055808,1845.1478000006318,44108.44140625,31100.705078125,27830.794921875,39246.23046875,38516.0,100,CROSS,1
2026-07-28 09:15:13.071404,1847.1478000001298,44102.43359375,31095.31640625,27826.40625,39241.60546875,38512.7578125,100,CROSS,1
2026-07-28 09:15:13.071404,1849.1478000005372,44091.75390625,31086.06640625,27816.822265625,39232.2578125,38504.74609375,100,CROSS,1
2026-07-28 09:15:13.071404,1851.1478000009447,44086.12890625,31077.673828125,27816.251953125,39228.203125,38497.69140625,100,CROSS,1
