datetime,timestamp,F3,T7,C3,Cz,P3,event_id,event_label,trial
2026-07-28 09:12:31.656847,1.1944000002586108,45448.30859375,31244.56640625,28883.26953125,40116.45703125,39742.046875,100,CROSS,1
2026-07-28 09:12:31.656847,3.1943999997565697,45456.9375,31250.431640625,28892.7109375,40124.609375,39750.62890625,100,CROSS,1
2026-07-28 09:12:31.656847,5.194400000164023,45440.7265625,31232.12109375,28883.31640625,40111.87890625,39733.890625,100,CROSS,1
2026-07-28 09:12:31.656847,7.19440000011673,45427.46875,31218.818359375,28875.734375,40101.578125,39720.109375,100,CROSS,1
2026-07-28 09:12:31.656847,9.194400000069436,45425.23046875,31215.2421875,28875.162109375,40099.2890625,39716.96484375,100,CROSS,1
2026-07-28 09:12:31.656847,11.194400000022142,45429.04296875,31220.724609375,28876.212890625,40102.4375,39721.0625,100,CROSS,1
2026-07-28 09:12:31.656847,13.194399999974848,45427.13671875,31221.630859375,28870.251953125,40099.43359375,39719.82421875,100,CROSS,1
2026-07-28 09:12:31.656847,15.194399999927555,45437.86328125,31232.7421875,28876.35546875,40107.828125,39729.88671875,100,CROSS,1
2026-07-28 09:12:31.656847,17.19439999988026,45441.109375,31235.888671875,28879.931640625,40111.26171875,39735.84765625,100,CROSS,1
2026-07-28 09:12:31.656847,19.194400000287715,45438.8671875,31234.79296875,28878.595703125,40111.78515625,39738.0859375,100,CROSS,1
2026-07-28 09:12:31.656847,21.194399999785674,45438.24609375,31231.59765625,28884.556640625,40116.125,39738.32421875,100,CROSS,1
2026-07-28 09:12:31.656847,23.194400000193127,45419.6484375,31213.716796875,28869.6796875,40099.2890625,39716.4375,100,CROSS,1
2026-07-28 09:12:31.656847,25.194400000145833,45411.828125,31206.181640625,28861.955078125,40087.84765625,39704.8515625,100,CROSS,1
2026-07-28 09:12:31.656847,27.19440000009854,45414.5,31209.806640625,28862.669921875,40087.80078125,39706.80859375,100,CROSS,1
2026-07-28 09:12:31.673088,29.194400000051246,45421.03125,31219.4375,28863.861328125,40092.140625,39714.4375,100,CROSS,1
2026-07-28 09:12:31.673088,31.194400000003952,45437.62890625,31238.654296875,28876.498046875,40107.5390625,39733.4609375,100,CROSS,1
2026-07-28 09:12:31.673088,33.19439999995666,45438.8203125,31241.32421875,28878.40625,40110.40234375,39738.23046875,100,CROSS,1
2026-07-28 09:12:31.673088,35.194399999909365,45432.62109375,31236.84375,28873.017578125,40105.87109375,39735.1328125,100,CROSS,1
2026-07-28 09:12:31.673088,37.19440000031682,45422.84375,31226.54296875,28867.15234375,40097.52734375,39724.97265625,100,CROSS,1
2026-07-28 09:12:31.673088,39.19439999981478,45417.50390625,31219.009765625,28868.296875,40095.28515625,39716.484375,100,CROSS,1
2026-07-28 09:12:31.673088,41.19440000022223,45413.69140625,31214.52734375,28869.822265625,40092.140625,39709.14453125,100,CROSS,1
2026-07-28 09:12:31.673088,43.19440000017494,45406.34765625,31208.517578125,28861.669921875,40084.22265625,39702.46875,100,CROSS,1
2026-07-28 09:12:31.689040,45.194400000127644,45401.0078125,31206.658203125,28851.703125,40078.9765625,39699.703125,100,CROSS,1
2026-07-28 09:12:31.689040,47.19440000008035,45418.93359375,31224.779296875,28861.3359375,40092.85546875,39716.34375,100,CROSS,1
2026-07-28 09:12:31.689040,49.194400000033056,45425.18359375,31230.119140625,28865.53125,40099.2421875,39722.875,100,CROSS,1
2026-07-28 09:12:31.689040,51.19439999998576,45431.6171875,31236.986328125,28873.876953125,40106.4453125,39732.890625,100,CROSS,1
2026-07-28 09:12:31.689040,53.19439999993847,45424.37109375,31231.8359375,28868.630859375,40100.29296875,39727.73828125,100,CROSS,1
2026-07-28 09:12:31.689040,55.194399999891175,45418.36328125,31224.396484375,28865.673828125,40096.3359375,39720.77734375,100,CROSS,1
2026-07-28 09:12:31.689040,57.19439999984388,45420.4609375,31224.205078125,28874.685546875,40100.76953125,39721.16015625,100,CROSS,1
2026-07-28 09:12:31.689040,59.194400000251335,45408.30078125,31213.23828125,28866.53125,40090.46875,39711.09765625,100,CROSS,1
2026-07-28 09:12:31.689040,61.19440000020404,45407.39453125,31216.576171875,28862.240234375,40088.89453125,39711.43359375,100,CROSS,1
2026-07-28 09:12:31.705753,63.19440000015675,45409.3515625,31220.916015625,28857.28125,40087.703125,39715.10546875,100,CROSS,1
2026-07-28 09:12:31.705753,65.19440000010945,45422.84375,31234.029296875,28866.19921875,40098.8125,39729.50390625,100,CROSS,1
2026-07-28 09:12:31.705753,67.19440000006216,45424.41796875,31238.654296875,28865.435546875,40102.7734375,39732.12890625,100,CROSS,1
2026-07-28 09:12:31.705753,69.19440000001487,45422.03515625,31235.126953125,28863.48046875,40101.578125,39732.12890625,100,CROSS,1
2026-07-28 09:12:31.705753,71.19439999996757,45420.12890625,31228.59375,28867.62890625,40102.19921875,39729.41015625,100,CROSS,1
2026-07-28 09:12:31.705753,73.19439999992028,45403.67578125,31211.09375,28856.185546875,40090.13671875,39710.90625,100,CROSS,1
2026-07-28 09:12:31.705753,75.19439999987299,45397.57421875,31205.84765625,28854.27734375,40087.41796875,39705.8046875,100,CROSS,1
2026-07-28 09:12:31.705753,77.19440000028044,45394.47265625,31207.0390625,28851.89453125,40085.3671875,39705.375,100,CROSS,1
2026-07-28 09:12:31.705753,79.1943999997784,45411.59375,31225.017578125,28864.81640625,40101.0546875,39722.875,100,CROSS,1
2026-07-28 09:12:31.705753,81.19440000018585,45426.421875,31237.701171875,28878.73828125,40115.55078125,39737.1796875,100,CROSS,1
2026-07-28 09:12:31.705753,83.19440000013856,45408.875,31221.6796875,28860.619140625,40099.53125,39721.921875,100,CROSS,1
2026-07-28 09:12:31.721984,85.19440000009126,45408.0625,31224.634765625,28857.42578125,40100.1484375,39725.59375,100,CROSS,1
2026-07-28 09:12:31.721984,87.19440000004397,45402.62890625,31218.0078125,28854.181640625,40096.57421875,39720.015625,100,CROSS,1
2026-07-28 09:12:31.721984,89.19439999999668,45401.0546875,31212.5234375,28853.75390625,40093.5703125,39714.86328125,100,CROSS,1
2026-07-28 09:12:31.721984,91.19439999994938,45408.4453125,31217.388671875,28865.0078125,40100.67578125,39719.6328125,100,CROSS,1
2026-07-28 09:12:31.721984,93.19439999990209,45396.5234375,31207.8515625,28856.947265625,40090.7578125,39710.8125,100,CROSS,1
2026-07-28 09:12:31.721984,95.19440000030954,45401.72265625,31215.2421875,28857.138671875,40091.375,39715.62890625,100,CROSS,1
2026-07-28 09:12:31.721984,97.1943999998075,45409.4453125,31225.63671875,28859.5703125,40096.4765625,39724.01953125,100,CROSS,1
2026-07-28 09:12:31.737824,99.19440000021496,45417.50390625,31233.6953125,28867.294921875,40104.82421875,39734.65234375,100,CROSS,1
2026-07-28 09:12:31.737824,101.19440000016766,45419.83984375,31238.701171875,28873.064453125,40110.49609375,39743.23828125,100,CROSS,1
2026-07-28 09:12:31.737824,103.19440000012037,45417.21875,31237.3671875,28873.494140625,40110.1640625,39741.94921875,100,CROSS,1
2026-07-28 09:12:31.737824,105.19440000007307,45405.6796875,31223.634765625,28865.388671875,40101.19921875,39729.55078125,100,CROSS,1
2026-07-28 09:12:31.737824,107.19440000002578,45397.3828125,31213.14453125,28860.619140625,40092.140625,39718.5859375,100,CROSS,1
2026-07-28 09:12:31.737824,109.19439999997849,45384.83984375,31200.9375,28851.560546875,40080.93359375,39706.37890625,100,CROSS,1
2026-07-28 09:12:31.754530,111.19439999993119,45385.26953125,31203.654296875,28849.318359375,40082.31640625,39708.5703125,100,CROSS,1
2026-07-28 09:12:31.754530,113.1943999998839,45390.27734375,31212.953125,28845.599609375,40084.078125,39713.76953125,100,CROSS,1
2026-07-28 09:12:31.754530,115.1943999998366,45406.91796875,31228.306640625,28856.51953125,40098.09765625,39730.21875,100,CROSS,1
2026-07-28 09:12:31.754530,117.19440000024406,45413.87890625,31234.314453125,28864.529296875,40105.01171875,39738.18359375,100,CROSS,1
2026-07-28 09:12:31.754530,119.19440000019677,45407.5859375,31226.78125,28859.5234375,40099.1953125,39732.4140625,100,CROSS,1
2026-07-28 09:12:31.754530,121.19440000014947,45403.9609375,31219.15234375,28858.330078125,40096.4765625,39726.64453125,100,CROSS,1
2026-07-28 09:12:31.754530,123.19440000010218,45392.23046875,31206.5625,28851.177734375,40086.703125,39710.57421875,100,CROSS,1
2026-07-28 09:12:31.754530,125.19440000005488,45394.85546875,31207.9453125,28855.13671875,40087.5625,39709.14453125,100,CROSS,1
2026-07-28 09:12:31.771025,127.19440000000759,45393.13671875,31206.802734375,28851.46484375,40083.078125,39707.140625,100,CROSS,1
2026-07-28 09:12:31.771025,129.1943999999603,45401.578125,31216.720703125,28855.70703125,40089.8984375,39716.53515625,100,CROSS,1
2026-07-28 09:12:31.771025,131.194399999913,45420.60546875,31236.412109375,28870.775390625,40108.06640625,39735.1328125,100,CROSS,1
2026-07-28 09:12:31.771025,133.1943999998657,45422.60546875,31238.98828125,28873.3515625,40110.640625,39738.0390625,100,CROSS,1
2026-07-28 09:12:31.771025,135.19440000027316,45418.36328125,31235.078125,28868.7265625,40105.91796875,39737.5625,100,CROSS,1
2026-07-28 09:12:31.771025,137.19439999977112,45402.62890625,31219.62890625,28855.470703125,40092.6640625,39722.828125,100,CROSS,1
2026-07-28 09:12:31.771025,139.19440000017858,45408.875,31223.681640625,28867.4375,40102.15234375,39726.35546875,100,CROSS,1
2026-07-28 09:12:31.771025,141.19440000013128,45394.28125,31208.8515625,28859.189453125,40090.18359375,39711.62109375,100,CROSS,1
2026-07-28 09:12:31.771025,143.194400000084,45384.078125,31201.17578125,28848.126953125,40081.45703125,39703.32421875,100,CROSS,1
2026-07-28 09:12:31.771025,145.1944000000367,45393.51953125,31213.23828125,28852.513671875,40089.8984375,39714.76953125,100,CROSS,1
2026-07-28 09:12:31.771025,147.1943999999894,45402.24609375,31224.205078125,28855.041015625,40096.0,39725.26171875,100,CROSS,1
2026-07-28 09:12:31.787392,149.1943999999421,45412.30859375,31232.599609375,28865.578125,40109.2578125,39737.37109375,100,CROSS,1
2026-07-28 09:12:31.787392,151.1943999998948,45402.76953125,31224.25390625,28855.373046875,40101.484375,39732.74609375,100,CROSS,1
2026-07-28 09:12:31.787392,153.19440000030227,45402.484375,31224.68359375,28855.041015625,40099.9609375,39732.84375,100,CROSS,1
2026-07-28 09:12:31.787392,155.19439999980023,45407.34765625,31226.16015625,28864.1484375,40105.48828125,39734.890625,100,CROSS,1
2026-07-28 09:12:31.787392,157.19440000020768,45401.72265625,31217.673828125,28864.529296875,40100.484375,39725.5,100,CROSS,1
2026-07-28 09:12:31.787392,159.19440000016039,45394.51953125,31214.09765625,28862.384765625,40094.76171875,39721.16015625,100,CROSS,1
2026-07-28 09:12:31.787392,161.1944000001131,45382.3125,31205.181640625,28849.4140625,40084.03125,39712.2890625,100,CROSS,1
2026-07-28 09:12:31.787392,163.1944000000658,45387.89453125,31213.4765625,28847.982421875,40086.3671875,39718.203125,100,CROSS,1
2026-07-28 09:12:31.803729,165.1944000000185,45402.1015625,31228.115234375,28855.8515625,40097.71875,39731.69921875,100,CROSS,1
2026-07-28 09:12:31.803729,167.1943999999712,45409.73046875,31235.984375,28863.95703125,40105.87109375,39741.6640625,100,CROSS,1
2026-07-28 09:12:31.803729,169.19439999992392,45408.875,31234.314453125,28866.4375,40105.6328125,39743.4296875,100,CROSS,1
2026-07-28 09:12:31.820171,171.19439999987662,45396.71484375,31221.345703125,28858.234375,40095.5234375,39730.50390625,100,CROSS,1
2026-07-28 09:12:31.820171,173.19439999982933,45394.85546875,31218.150390625,28859.76171875,40094.4765625,39724.92578125,100,CROSS,1
2026-07-28 09:12:31.820171,175.19440000023678,45387.2265625,31210.615234375,28853.609375,40086.75,39713.76953125,100,CROSS,1
2026-07-28 09:12:31.852764,177.1944000001895,45383.36328125,31208.8046875,28845.12109375,40081.5546875,39709.953125,100,CROSS,1
2026-07-28 09:12:31.852764,179.1944000001422,45401.1484375,31227.49609375,28856.51953125,40094.1875,39727.0703125,100,CROSS,1
2026-07-28 09:12:31.852764,181.1944000000949,45406.77734375,31232.693359375,28858.140625,40098.48046875,39733.69921875,100,CROSS,1
2026-07-28 09:12:31.852764,183.1944000000476,45411.2109375,31235.888671875,28861.716796875,40102.24609375,39739.18359375,100,CROSS,1
2026-07-28 09:12:31.852764,185.19440000000031,45413.35546875,31238.2734375,28864.1015625,40104.05859375,39741.28125,100,CROSS,1
2026-07-28 09:12:31.852764,187.19439999995302,45410.06640625,31233.076171875,28862.861328125,40101.9140625,39736.80078125,100,CROSS,1
2026-07-28 09:12:31.852764,189.19439999990573,45416.50390625,31234.83984375,28875.306640625,40109.44921875,39738.9921875,100,CROSS,1
2026-07-28 09:12:31.852764,191.19439999985843,45399.1953125,31215.95703125,28863.861328125,40093.09375,39718.91796875,100,CROSS,1
2026-07-28 09:12:31.852764,193.1944000002659,45390.66015625,31208.8046875,28853.0859375,40083.69921875,39709.4765625,100,CROSS,1
2026-07-28 09:12:31.852764,195.19439999976385,45391.13671875,31212.66796875,28848.603515625,40082.03125,39711.05078125,100,CROSS,1
2026-07-28 09:12:31.852764,197.1944000001713,45406.48828125,31230.16796875,28857.42578125,40095.23828125,39726.0234375,100,CROSS,1
2026-07-28 09:12:31.852764,199.194400000124,45421.98828125,31242.8984375,28870.919921875,40109.87890625,39739.9921875,100,CROSS,1
2026-07-28 09:12:31.852764,201.1944000000767,45415.3125,31237.55859375,28867.8671875,40104.82421875,39736.37109375,100,CROSS,1
2026-07-28 09:12:31.852764,203.19440000002942,45410.828125,31232.884765625,28864.1953125,40100.625,39731.88671875,100,CROSS,1
2026-07-28 09:12:31.852764,205.19439999998212,45409.015625,31226.923828125,28861.90625,40099.671875,39725.9296875,100,CROSS,1
2026-07-28 09:12:31.852764,207.19439999993483,45411.54296875,31229.1640625,28868.7265625,40103.390625,39725.6875,100,CROSS,1
2026-07-28 09:12:31.852764,209.19439999988754,45408.20703125,31226.734375,28871.109375,40100.1484375,39721.921875,100,CROSS,1
2026-07-28 09:12:31.852764,211.194400000295,45395.6640625,31219.8671875,28856.99609375,40089.515625,39713.48046875,100,CROSS,1
2026-07-28 09:12:31.852764,213.19439999979295,45401.2421875,31229.595703125,28855.994140625,40093.140625,39722.3515625,100,CROSS,1
2026-07-28 09:12:31.852764,215.1944000002004,45412.640625,31239.130859375,28866.294921875,40105.82421875,39735.2734375,100,CROSS,1
2026-07-28 09:12:31.869749,217.1944000001531,45419.890625,31245.044921875,28876.783203125,40115.02734375,39745.52734375,100,CROSS,1
2026-07-28 09:12:31.869749,219.19440000010582,45416.7890625,31244.7109375,28875.783203125,40115.12109375,39746.14453125,100,CROSS,1
2026-07-28 09:12:31.869749,221.19440000005852,45402.484375,31227.400390625,28862.05078125,40100.625,39729.50390625,100,CROSS,1
2026-07-28 09:12:31.869749,223.19440000001123,45401.81640625,31222.15625,28864.1015625,40101.29296875,39724.49609375,100,CROSS,1
2026-07-28 09:12:31.869749,225.19439999996393,45395.4765625,31216.43359375,28859.80859375,40095.953125,39717.15234375,100,CROSS,1
2026-07-28 09:12:31.869749,227.19439999991664,45383.41015625,31210.330078125,28848.4609375,40086.796875,39711.765625,100,CROSS,1
2026-07-28 09:12:31.869749,229.1944000003241,45398.23828125,31228.736328125,28857.42578125,40100.76953125,39730.98046875,100,CROSS,1
2026-07-28 09:12:31.869749,231.19439999982205,45408.30078125,31239.083984375,28862.669921875,40107.25390625,39740.42578125,100,CROSS,1
2026-07-28 09:12:31.869749,233.1944000002295,45414.8359375,31240.75390625,28870.203125,40111.92578125,39743.6640625,100,CROSS,1
2026-07-28 09:12:31.869749,235.1944000001822,45409.3984375,31232.884765625,28865.33984375,40105.96875,39737.9921875,100,CROSS,1
2026-07-28 09:12:31.869749,237.19440000013492,45406.44140625,31228.44921875,28862.669921875,40102.4375,39734.2265625,100,CROSS,1
2026-07-28 09:12:31.869749,239.19440000008763,45402.578125,31222.44140625,28864.43359375,40100.72265625,39727.12109375,100,CROSS,1
2026-07-28 09:12:31.886230,241.19440000004033,45396.6171875,31214.240234375,28861.001953125,40094.6640625,39717.296875,100,CROSS,1
2026-07-28 09:12:31.886230,243.19439999999304,45388.65625,31208.13671875,28853.228515625,40084.69921875,39709.859375,100,CROSS,1
2026-07-28 09:12:31.886230,245.19439999994574,45406.7265625,31230.119140625,28869.203125,40102.53515625,39730.07421875,100,CROSS,1
2026-07-28 09:12:31.886230,247.19439999989845,45419.26953125,31244.232421875,28878.119140625,40114.8359375,39744.71484375,100,CROSS,1
2026-07-28 09:12:31.886230,249.19439999985116,45423.08203125,31245.1875,28880.599609375,40118.74609375,39748.0546875,100,CROSS,1
2026-07-28 09:12:31.886230,251.1944000002586,45411.40234375,31232.3125,28867.9140625,40104.91796875,39735.2265625,100,CROSS,1
2026-07-28 09:12:31.886230,253.19439999975657,45409.63671875,31230.0234375,28865.53125,40103.8203125,39733.22265625,100,CROSS,1
2026-07-28 09:12:31.886230,255.19440000016402,45396.80859375,31215.193359375,28855.66015625,40092.6640625,39719.015625,100,CROSS,1
2026-07-28 09:12:31.886230,257.19440000011673,45397.19140625,31214.478515625,28861.716796875,40095.5234375,39716.15234375,100,CROSS,1
2026-07-28 09:12:31.886230,259.19440000006944,45385.3671875,31203.08203125,28853.515625,40085.08203125,39704.328125,100,CROSS,1
2026-07-28 09:12:31.902656,261.19440000002214,45379.453125,31201.65234375,28843.548828125,40079.7890625,39699.796875,100,CROSS,1
2026-07-28 09:12:31.902656,263.19439999997485,45394.234375,31220.8203125,28850.4140625,40092.85546875,39715.8671875,100,CROSS,1
2026-07-28 09:12:31.902656,265.19439999992755,45400.578125,31226.54296875,28852.751953125,40097.3828125,39722.63671875,100,CROSS,1
2026-07-28 09:12:31.902656,267.19439999988026,45409.25390625,31233.505859375,28861.716796875,40107.3984375,39733.22265625,100,CROSS,1
2026-07-28 09:12:31.902656,269.1944000002877,45401.671875,31226.923828125,28854.181640625,40102.10546875,39726.8359375,100,CROSS,1
2026-07-28 09:12:31.902656,271.1943999997857,45401.29296875,31225.494140625,28855.279296875,40104.34765625,39726.40625,100,CROSS,1
2026-07-28 09:12:31.902656,273.1944000001931,45403.53125,31223.205078125,28862.8125,40108.58984375,39725.0234375,100,CROSS,1
2026-07-28 09:12:31.902656,275.19440000014583,45401.29296875,31218.72265625,28867.390625,40106.109375,39720.20703125,100,CROSS,1
2026-07-28 09:12:31.902656,277.19440000009854,45395.5234375,31215.2890625,28864.529296875,40097.71875,39715.67578125,100,CROSS,1
2026-07-28 09:12:31.902656,279.19440000005125,45394.37890625,31217.81640625,28856.08984375,40093.47265625,39714.24609375,100,CROSS,1
2026-07-28 09:12:31.919465,281.19440000000395,45406.6328125,31230.548828125,28861.19140625,40105.5390625,39726.9296875,100,CROSS,1
2026-07-28 09:12:31.919465,283.19439999995666,45411.40234375,31232.884765625,28865.865234375,40111.83203125,39732.84375,100,CROSS,1
2026-07-28 09:12:31.919465,285.19439999990936,45411.6875,31232.693359375,28866.962890625,40112.8828125,39737.515625,100,CROSS,1
2026-07-28 09:12:31.919465,287.1944000003168,45402.0078125,31222.34765625,28859.5234375,40106.15625,39728.12109375,100,CROSS,1
2026-07-28 09:12:31.919465,289.1943999998148,45387.4140625,31204.703125,28845.50390625,40092.37890625,39708.85546875,100,CROSS,1
2026-07-28 09:12:31.919465,291.19440000022223,45387.796875,31203.08203125,28847.36328125,40089.9921875,39705.234375,100,CROSS,1
2026-07-28 09:12:31.919465,293.19440000017494,45380.9296875,31199.029296875,28841.59375,40082.26953125,39699.4140625,100,CROSS,1
2026-07-28 09:12:31.919465,295.19440000012764,45393.13671875,31213.19140625,28849.65234375,40092.85546875,39711.671875,100,CROSS,1
2026-07-28 09:12:31.919465,297.19440000008035,45418.21875,31238.3671875,28870.298828125,40114.8828125,39735.3671875,100,CROSS,1
2026-07-28 09:12:31.919465,299.19440000003306,45414.8828125,31235.36328125,28865.33984375,40111.2109375,39731.41015625,100,CROSS,1
2026-07-28 09:12:31.936051,301.19439999998576,45416.7421875,31237.17578125,28866.103515625,40113.26171875,39734.2265625,100,CROSS,1
2026-07-28 09:12:31.936051,303.19439999993847,45424.41796875,31242.517578125,28876.259765625,40122.1796875,39743.6640625,100,CROSS,1
2026-07-28 09:12:31.936051,305.1943999998912,45418.5078125,31232.408203125,28877.26171875,40117.9375,39734.890625,100,CROSS,1
2026-07-28 09:12:31.953471,307.1943999998439,45407.34765625,31219.580078125,28872.20703125,40106.73046875,39720.25390625,100,CROSS,1
2026-07-28 09:12:31.953471,309.19440000025133,45387.12890625,31202.12890625,28850.84375,40085.94140625,39698.51171875,100,CROSS,1
2026-07-28 09:12:31.953471,311.19440000020404,45389.65625,31209.853515625,28846.505859375,40087.5625,39703.5625,100,CROSS,1
2026-07-28 09:12:31.953471,313.19440000015675,45401.0546875,31223.873046875,28851.130859375,40096.0,39717.15234375,100,CROSS,1
2026-07-28 09:12:31.953471,315.19440000010945,45415.55078125,31237.4140625,28862.001953125,40110.40234375,39730.31640625,100,CROSS,1
2026-07-28 09:12:31.953471,317.19440000006216,45425.609375,31246.140625,28872.873046875,40121.12890625,39741.328125,100,CROSS,1
2026-07-28 09:12:31.953471,319.19440000001487,45422.2265625,31242.23046875,28872.302734375,40118.125,39739.08984375,100,CROSS,1
2026-07-28 09:12:31.953471,321.1943999999676,45416.7890625,31234.314453125,28872.73046875,40113.30859375,39734.03515625,100,CROSS,1
2026-07-28 09:12:31.953471,323.1943999999203,45410.2109375,31226.16015625,28871.25390625,40107.015625,39724.49609375,100,CROSS,1
2026-07-28 09:12:31.953471,325.194399999873,45401.53125,31214.908203125,28866.341796875,40097.09765625,39713.33984375,100,CROSS,1
2026-07-28 09:12:31.969989,327.19440000028044,45397.57421875,31213.001953125,28863.146484375,40095.23828125,39711.91015625,100,CROSS,1
2026-07-28 09:12:31.969989,329.1943999997784,45386.9375,31208.185546875,28846.02734375,40086.2734375,39704.7109375,100,CROSS,1
2026-07-28 09:12:31.969989,331.19440000018585,45394.6171875,31218.580078125,28844.884765625,40090.51953125,39712.09765625,100,CROSS,1
2026-07-28 09:12:31.969989,333.19440000013856,45406.34765625,31228.59375,28854.181640625,40104.25,39725.1171875,100,CROSS,1
2026-07-28 09:12:31.969989,335.19440000009126,45409.78125,31230.8828125,28857.806640625,40105.73046875,39730.41015625,100,CROSS,1
2026-07-28 09:12:31.969989,337.19440000004397,45408.25390625,31226.97265625,28859.857421875,40103.96484375,39727.16796875,100,CROSS,1
2026-07-28 09:12:31.969989,339.1943999999967,45398.14453125,31213.810546875,28854.9921875,40095.0,39713.1953125,100,CROSS,1
2026-07-28 09:12:31.969989,341.1943999999494,45388.37109375,31205.466796875,28850.98828125,40087.41796875,39703.13671875,100,CROSS,1
2026-07-28 09:12:31.986161,343.1943999999021,45382.36328125,31202.55859375,28845.98046875,40082.83984375,39698.890625,100,CROSS,1
2026-07-28 09:12:31.986161,345.19440000030954,45383.984375,31207.46875,28842.595703125,40084.22265625,39702.46875,100,CROSS,1
2026-07-28 09:12:31.986161,347.1943999998075,45397.57421875,31222.87109375,28850.60546875,40096.3359375,39716.53515625,100,CROSS,1
2026-07-28 09:12:31.986161,349.19440000021496,45401.484375,31224.873046875,28850.224609375,40098.09765625,39720.15625,100,CROSS,1
2026-07-28 09:12:31.986161,351.19440000016766,45406.39453125,31230.0234375,28853.943359375,40101.67578125,39728.453125,100,CROSS,1
2026-07-28 09:12:31.986161,353.19440000012037,45406.05859375,31228.498046875,28856.99609375,40102.296875,39728.93359375,100,CROSS,1
2026-07-28 09:12:31.986161,355.1944000000731,45395.80859375,31215.193359375,28852.1328125,40094.1875,39715.67578125,100,CROSS,1
2026-07-28 09:12:31.986161,357.1944000000258,45392.8984375,31211.521484375,28855.70703125,40094.6640625,39709.859375,100,CROSS,1
2026-07-28 09:12:31.986161,359.1943999999785,45384.79296875,31206.087890625,28851.560546875,40088.41796875,39704.46875,100,CROSS,1
2026-07-28 09:12:31.986161,361.1943999999312,45386.9375,31210.330078125,28850.892578125,40089.8515625,39709.046875,100,CROSS,1
2026-07-28 09:12:32.002726,363.1943999998839,45395.90234375,31218.818359375,28852.89453125,40095.28515625,39716.390625,100,CROSS,1
2026-07-28 09:12:32.002726,365.1943999998366,45400.671875,31225.63671875,28852.990234375,40099.625,39720.5859375,100,CROSS,1
2026-07-28 09:12:32.002726,367.19440000024406,45416.40625,31240.75390625,28868.10546875,40115.07421875,39738.37109375,100,CROSS,1
2026-07-28 09:12:32.002726,369.19440000019677,45403.67578125,31226.876953125,28856.51953125,40101.67578125,39726.78515625,100,CROSS,1
2026-07-28 09:12:32.002726,371.19440000014947,45398.48046875,31220.8203125,28854.658203125,40096.57421875,39719.73046875,100,CROSS,1
2026-07-28 09:12:32.002726,373.1944000001022,45393.99609375,31214.859375,28856.185546875,40093.85546875,39711.95703125,100,CROSS,1
2026-07-28 09:12:32.002726,375.1944000000549,45384.6015625,31205.0859375,28849.986328125,40085.60546875,39701.84765625,100,CROSS,1
2026-07-28 09:12:32.002726,377.1944000000076,45383.6015625,31206.896484375,28845.552734375,40082.41015625,39701.46484375,100,CROSS,1
2026-07-28 09:12:32.019748,379.1943999999603,45397.62109375,31224.205078125,28852.1796875,40091.7578125,39715.34375,100,CROSS,1
2026-07-28 09:12:32.019748,381.194399999913,45409.78125,31234.36328125,28858.140625,40100.76953125,39727.9765625,100,CROSS,1
2026-07-28 09:12:32.019748,383.1943999998657,45407.15625,31231.216796875,28857.091796875,40101.0078125,39728.40625,100,CROSS,1
2026-07-28 09:12:32.019748,385.19440000027316,45415.26171875,31240.1796875,28865.0546875,40109.97265625,39739.421875,100,CROSS,1
2026-07-28 09:12:32.019748,387.1943999997711,45402.4375,31226.923828125,28856.04296875,40100.9609375,39727.0234375,100,CROSS,1
2026-07-28 09:12:32.019748,389.1944000001786,45388.94140625,31211.427734375,28847.076171875,40090.7578125,39711.43359375,100,CROSS,1
2026-07-28 09:12:32.019748,391.1944000001313,45383.88671875,31205.84765625,28845.599609375,40087.84765625,39704.23046875,100,CROSS,1
2026-07-28 09:12:32.019748,393.194400000084,45381.02734375,31205.5625,28844.8359375,40085.2265625,39703.8046875,100,CROSS,1
2026-07-28 09:12:32.036851,395.1944000000367,45393.99609375,31220.8671875,28853.419921875,40096.09765625,39717.96484375,100,CROSS,1
2026-07-28 09:12:32.036851,397.1943999999894,45407.68359375,31234.79296875,28861.90625,40107.16015625,39731.79296875,100,CROSS,1
2026-07-28 09:12:32.036851,399.1943999999421,45408.015625,31232.50390625,28860.857421875,40107.3515625,39731.69921875,100,CROSS,1
2026-07-28 09:12:32.036851,401.1943999998948,45395.80859375,31221.583984375,28845.7421875,40093.5234375,39719.48828125,100,CROSS,1
2026-07-28 09:12:32.036851,403.19440000030227,45402.33984375,31225.3984375,28850.3671875,40098.09765625,39723.6875,100,CROSS,1
2026-07-28 09:12:32.036851,405.1943999998002,45405.15234375,31222.060546875,28859.380859375,40102.34375,39723.06640625,100,CROSS,1
2026-07-28 09:12:32.036851,407.1944000002077,45387.46484375,31200.36328125,28844.931640625,40084.17578125,39699.75,100,CROSS,1
2026-07-28 09:12:32.036851,409.1944000001604,45378.1640625,31193.40234375,28836.205078125,40074.734375,39688.16015625,100,CROSS,1
2026-07-28 09:12:32.053309,411.1944000001131,45387.51171875,31206.75390625,28841.1640625,40083.31640625,39698.65234375,100,CROSS,1
2026-07-28 09:12:32.053309,413.1944000000658,45400.578125,31222.775390625,28849.4140625,40093.28125,39713.2421875,100,CROSS,1
2026-07-28 09:12:32.053309,415.1944000000185,45411.3515625,31232.07421875,28860.142578125,40105.0625,39725.78515625,100,CROSS,1
2026-07-28 09:12:32.053309,417.1943999999712,45402.9140625,31223.396484375,28854.134765625,40098.38671875,39720.68359375,100,CROSS,1
2026-07-28 09:12:32.053309,419.1943999999239,45403.19921875,31226.11328125,28853.705078125,40099.0546875,39722.63671875,100,CROSS,1
2026-07-28 09:12:32.053309,421.1943999998766,45404.01171875,31225.970703125,28857.853515625,40100.76953125,39721.96875,100,CROSS,1
2026-07-28 09:12:32.053309,423.19439999982933,45399.765625,31218.294921875,28859.046875,40096.859375,39715.72265625,100,CROSS,1
2026-07-28 09:12:32.053309,425.1944000002368,45393.6640625,31211.6171875,28858.6640625,40091.234375,39709.5703125,100,CROSS,1
2026-07-28 09:12:32.053309,427.1944000001895,45377.0703125,31198.505859375,28840.736328125,40072.921875,39695.07421875,100,CROSS,1
2026-07-28 09:12:32.053309,429.1944000001422,45391.27734375,31215.05078125,28845.7421875,40082.5078125,39708.37890625,100,CROSS,1
2026-07-28 09:12:32.069510,431.1944000000949,45411.59375,31234.5546875,28860.4296875,40099.48046875,39727.453125,100,CROSS,1
2026-07-28 09:12:32.069510,433.1944000000476,45412.44921875,31233.791015625,28861.001953125,40100.33984375,39729.59765625,100,CROSS,1
2026-07-28 09:12:32.069510,435.1944000000003,45413.0703125,31235.5078125,28862.193359375,40101.9609375,39732.65234375,100,CROSS,1
2026-07-28 09:12:32.069510,437.194399999953,45406.6796875,31228.306640625,28858.712890625,40099.1953125,39725.9765625,100,CROSS,1
2026-07-28 09:12:32.069510,439.1943999999057,45402.4375,31221.345703125,28857.662109375,40095.046875,39720.4453125,100,CROSS,1
2026-07-28 09:12:32.069510,441.19439999985843,45397.4296875,31214.3828125,28856.662109375,40089.0390625,39710.90625,100,CROSS,1
2026-07-28 09:12:32.069510,443.1944000002659,45387.703125,31205.84765625,28848.794921875,40081.265625,39702.84765625,100,CROSS,1
2026-07-28 09:12:32.069510,445.19439999976385,45396.3828125,31216.1953125,28853.943359375,40088.84765625,39713.1484375,100,CROSS,1
2026-07-28 09:12:32.086010,447.1944000001713,45408.109375,31229.35546875,28859.904296875,40099.71875,39723.3515625,100,CROSS,1
2026-07-28 09:12:32.086010,449.194400000124,45418.41015625,31238.130859375,28867.677734375,40111.26171875,39732.5078125,100,CROSS,1
2026-07-28 09:12:32.086010,451.1944000000767,45406.6328125,31227.06640625,28854.9453125,40099.81640625,39721.4453125,100,CROSS,1
2026-07-28 09:12:32.086010,453.1944000000294,45409.3984375,31229.9765625,28859.427734375,40103.48828125,39724.546875,100,CROSS,1
2026-07-28 09:12:32.086010,455.1943999999821,45403.4375,31219.8671875,28859.951171875,40099.578125,39716.8671875,100,CROSS,1
2026-07-28 09:12:32.086010,457.19439999993483,45390.421875,31204.607421875,28848.794921875,40087.89453125,39701.1328125,100,CROSS,1
2026-07-28 09:12:32.086010,459.19439999988754,45392.56640625,31208.8046875,28850.84375,40088.515625,39700.703125,100,CROSS,1
2026-07-28 09:12:32.086010,461.194400000295,45391.13671875,31210.330078125,28847.982421875,40084.3203125,39701.2734375,100,CROSS,1
2026-07-28 09:12:32.086010,463.19439999979295,45403.484375,31226.447265625,28854.8984375,40094.953125,39715.8203125,100,CROSS,1
2026-07-28 09:12:32.103681,465.1944000002004,45417.359375,31239.798828125,28867.294921875,40107.875,39730.125,100,CROSS,1
2026-07-28 09:12:32.103681,467.1944000001531,45409.25390625,31231.978515625,28861.001953125,40100.625,39724.734375,100,CROSS,1
2026-07-28 09:12:32.103681,469.1944000001058,45407.4921875,31231.8359375,28859.236328125,40097.14453125,39724.640625,100,CROSS,1
2026-07-28 09:12:32.103681,471.1944000000585,45405.34375,31228.1640625,28860.619140625,40097.14453125,39722.875,100,CROSS,1
2026-07-28 09:12:32.103681,473.1944000000112,45399.3359375,31218.67578125,28859.5703125,40091.08984375,39712.1484375,100,CROSS,1
2026-07-28 09:12:32.103681,475.19439999996393,45397.046875,31215.00390625,28860.953125,40089.37109375,39707.47265625,100,CROSS,1
2026-07-28 09:12:32.103681,477.19439999991664,45386.84375,31208.232421875,28847.83984375,40079.02734375,39697.4609375,100,CROSS,1
2026-07-28 09:12:32.103681,479.1944000003241,45395.90234375,31221.7734375,28851.607421875,40086.703125,39709.3828125,100,CROSS,1
2026-07-28 09:12:32.120394,481.19439999982205,45410.3046875,31236.9375,28862.193359375,40100.1015625,39725.9765625,100,CROSS,1
2026-07-28 09:12:32.120394,483.1944000002295,45410.16015625,31234.125,28859.140625,40101.19921875,39725.26171875,100,CROSS,1
2026-07-28 09:12:32.120394,485.1944000001822,45413.546875,31237.509765625,28862.908203125,40106.34765625,39732.17578125,100,CROSS,1
2026-07-28 09:12:32.120394,487.1944000001349,45410.16015625,31233.45703125,28863.146484375,40104.82421875,39729.55078125,100,CROSS,1
2026-07-28 09:12:32.120394,489.1944000000876,45407.5390625,31224.5390625,28866.484375,40104.01171875,39723.01953125,100,CROSS,1
2026-07-28 09:12:32.120394,491.19440000004033,45388.609375,31205.228515625,28849.69921875,40086.703125,39700.3203125,100,CROSS,1
2026-07-28 09:12:32.120394,493.19439999999304,45382.41015625,31202.462890625,28841.021484375,40078.8359375,39693.64453125,100,CROSS,1
2026-07-28 09:12:32.120394,495.19439999994574,45395.37890625,31216.86328125,28847.935546875,40087.84765625,39709.5234375,100,CROSS,1
2026-07-28 09:12:32.120394,497.19439999989845,45400.52734375,31223.634765625,28848.365234375,40091.04296875,39715.4375,100,CROSS,1
2026-07-28 09:12:32.120394,499.19439999985116,45409.16015625,31232.408203125,28855.23046875,40101.24609375,39726.0703125,100,CROSS,1
2026-07-28 09:12:32.120394,501.1944000002586,45410.92578125,31232.455078125,28858.234375,40104.203125,39730.31640625,100,CROSS,1
2026-07-28 09:12:32.136946,503.19439999975657,45412.546875,31234.505859375,28865.435546875,40108.3984375,39734.3671875,100,CROSS,1
2026-07-28 09:12:32.153713,505.194400000164,45403.19921875,31222.39453125,28862.62109375,40100.53125,39724.1640625,100,CROSS,1
2026-07-28 09:12:32.153713,507.19440000011673,45394.99609375,31213.572265625,28856.947265625,40092.90234375,39713.53125,100,CROSS,1
2026-07-28 09:12:32.153713,509.19440000006944,45382.55078125,31202.462890625,28846.791015625,40081.07421875,39701.0859375,100,CROSS,1
2026-07-28 09:12:32.153713,511.19440000002214,45381.21875,31204.03515625,28841.068359375,40077.8828125,39699.94140625,100,CROSS,1
2026-07-28 09:12:32.153713,513.1943999999748,45397.14453125,31222.060546875,28850.55859375,40090.8515625,39716.8671875,100,CROSS,1
2026-07-28 09:12:32.153713,515.1943999999276,45392.0390625,31216.1484375,28840.259765625,40083.5546875,39710.05078125,100,CROSS,1
2026-07-28 09:12:32.153713,517.1943999998803,45399.671875,31224.5390625,28844.40625,40091.94921875,39719.87109375,100,CROSS,1
2026-07-28 09:12:32.153713,519.1944000002877,45406.30078125,31231.119140625,28849.890625,40098.71875,39728.359375,100,CROSS,1
2026-07-28 09:12:32.153713,521.1943999997857,45399.48046875,31220.8203125,28849.03125,40094.046875,39720.109375,100,CROSS,1
2026-07-28 09:12:32.153713,523.1944000001931,45403.19921875,31221.05859375,28861.095703125,40100.76953125,39722.11328125,100,CROSS,1
2026-07-28 09:12:32.153713,525.1944000001458,45370.48828125,31190.923828125,28831.67578125,40068.8203125,39687.11328125,100,CROSS,1
2026-07-28 09:12:32.153713,527.1944000000985,45368.9140625,31191.923828125,28822.662109375,40064.00390625,39684.6796875,100,CROSS,1
2026-07-28 09:12:32.170576,529.1944000000512,45390.32421875,31214.09765625,28836.96875,40082.5078125,39706.08984375,100,CROSS,1
2026-07-28 09:12:32.170576,531.194400000004,45411.734375,31233.88671875,28854.181640625,40101.53125,39725.9296875,100,CROSS,1
2026-07-28 09:12:32.170576,533.1943999999567,45421.26953125,31241.181640625,28867.677734375,40110.87890625,39738.23046875,100,CROSS,1
2026-07-28 09:12:32.170576,535.1943999999094,45408.875,31229.30859375,28854.658203125,40098.57421875,39726.1640625,100,CROSS,1
2026-07-28 09:12:32.170576,537.1944000003168,45400.578125,31220.34375,28847.458984375,40091.51953125,39716.7734375,100,CROSS,1
2026-07-28 09:12:32.187466,539.1943999998148,45395.94921875,31210.330078125,28847.36328125,40087.609375,39707.6171875,100,CROSS,1
2026-07-28 09:12:32.187466,541.1944000002222,45388.1328125,31201.26953125,28843.453125,40080.59765625,39696.41015625,100,CROSS,1
2026-07-28 09:12:32.187466,543.1944000001749,45390.18359375,31205.943359375,28845.7421875,40082.171875,39700.03515625,100,CROSS,1
2026-07-28 09:12:32.187466,545.1944000001276,45389.0859375,31208.13671875,28840.49609375,40078.73828125,39699.890625,100,CROSS,1
2026-07-28 09:12:32.220556,547.1944000000803,45402.484375,31223.25390625,28847.982421875,40088.84765625,39714.62890625,100,CROSS,1
2026-07-28 09:12:32.220556,549.194400000033,45415.69140625,31234.6015625,28860.333984375,40102.390625,39728.07421875,100,CROSS,1
2026-07-28 09:12:32.220556,551.1943999999858,45409.828125,31230.404296875,28858.234375,40100.578125,39727.12109375,100,CROSS,1
2026-07-28 09:12:32.220556,553.1943999999385,45403.8671875,31226.734375,28856.7578125,40097.43359375,39725.44921875,100,CROSS,1
2026-07-28 09:12:32.220556,555.1943999998912,45386.22265625,31207.46875,28840.591796875,40081.7890625,39704.9453125,100,CROSS,1
2026-07-28 09:12:32.220556,557.1943999998439,45383.79296875,31202.080078125,28841.40234375,40080.50390625,39699.2265625,100,CROSS,1
2026-07-28 09:12:32.220556,559.1944000002513,45378.44921875,31197.359375,28838.16015625,40076.546875,39694.6484375,100,CROSS,1
2026-07-28 09:12:32.220556,561.194400000204,45377.30859375,31199.6015625,28834.7265625,40076.40234375,39696.26953125,100,CROSS,1
2026-07-28 09:12:32.220556,563.1944000001567,45385.984375,31211.80859375,28840.068359375,40084.796875,39709.14453125,100,CROSS,1
2026-07-28 09:12:32.237262,565.1944000001095,45384.26953125,31211.189453125,28835.490234375,40083.84375,39706.94921875,100,CROSS,1
2026-07-28 09:12:32.237262,567.1944000000622,45394.7578125,31221.345703125,28845.02734375,40094.6171875,39717.203125,100,CROSS,1
2026-07-28 09:12:32.237262,569.1944000000149,45400.765625,31225.302734375,28848.794921875,40096.90625,39722.68359375,100,CROSS,1
2026-07-28 09:12:32.237262,571.1943999999676,45401.2421875,31222.060546875,28853.515625,40097.00390625,39720.4921875,100,CROSS,1
2026-07-28 09:12:32.237262,573.1943999999203,45393.99609375,31211.76171875,28849.986328125,40088.80078125,39709.5234375,100,CROSS,1
2026-07-28 09:12:32.237262,575.194399999873,45380.26171875,31197.50390625,28841.021484375,40075.2578125,39694.07421875,100,CROSS,1
2026-07-28 09:12:32.237262,577.1944000002804,45372.30078125,31192.97265625,28830.578125,40067.05859375,39688.01953125,100,CROSS,1
2026-07-28 09:12:32.237262,579.1943999997784,45384.890625,31210.47265625,28837.779296875,40079.359375,39703.0859375,100,CROSS,1
2026-07-28 09:12:32.237262,581.1944000001859,45398.62109375,31224.587890625,28845.50390625,40090.375,39716.8671875,100,CROSS,1
2026-07-28 09:12:32.237262,583.1944000001386,45404.53515625,31227.49609375,28851.703125,40096.4296875,39725.35546875,100,CROSS,1
2026-07-28 09:12:32.269922,585.1944000000913,45393.08984375,31218.912109375,28844.216796875,40088.0859375,39719.44140625,100,CROSS,1
2026-07-28 09:12:32.269922,587.194400000044,45388.1796875,31213.763671875,28839.49609375,40084.65234375,39714.484375,100,CROSS,1
2026-07-28 09:12:32.269922,589.1943999999967,45386.98828125,31211.951171875,28843.9296875,40085.60546875,39712.95703125,100,CROSS,1
2026-07-28 09:12:32.269922,591.1943999999494,45377.2109375,31203.798828125,28841.689453125,40081.45703125,39705.08984375,100,CROSS,1
2026-07-28 09:12:32.269922,593.1943999999021,45371.39453125,31198.314453125,28837.255859375,40078.26171875,39702.32421875,100,CROSS,1
2026-07-28 09:12:32.269922,595.1944000003095,45368.58203125,31200.126953125,28831.67578125,40075.734375,39701.89453125,100,CROSS,1
2026-07-28 09:12:32.269922,597.1943999998075,45378.8828125,31213.001953125,28834.6328125,40082.078125,39710.23828125,100,CROSS,1
2026-07-28 09:12:32.269922,599.194400000215,45384.6015625,31215.623046875,28835.30078125,40083.36328125,39711.671875,100,CROSS,1
2026-07-28 09:12:32.269922,601.1944000001677,45388.1328125,31216.671875,28835.728515625,40083.17578125,39712.625,100,CROSS,1
2026-07-28 09:12:32.269922,603.1944000001204,45399.859375,31224.921875,28848.74609375,40093.37890625,39724.59375,100,CROSS,1
2026-07-28 09:12:32.269922,605.1944000000731,45387.12890625,31209.47265625,28840.640625,40080.02734375,39708.37890625,100,CROSS,1
2026-07-28 09:12:32.269922,607.1944000000258,45385.17578125,31205.513671875,28840.974609375,40076.1640625,39699.94140625,100,CROSS,1
2026-07-28 09:12:32.269922,609.1943999999785,45381.50390625,31202.4140625,28837.541015625,40071.20703125,39695.45703125,100,CROSS,1
2026-07-28 09:12:32.287133,611.1943999999312,45389.27734375,31213.810546875,28840.736328125,40078.21484375,39705.47265625,100,CROSS,1
2026-07-28 09:12:32.287133,613.1943999998839,45410.63671875,31238.98828125,28859.283203125,40098.8125,39729.93359375,100,CROSS,1
2026-07-28 09:12:32.287133,615.1943999998366,45414.64453125,31242.8984375,28862.765625,40103.8671875,39734.890625,100,CROSS,1
2026-07-28 09:12:32.287133,617.1944000002441,45414.9765625,31243.375,28863.91015625,40105.01171875,39738.23046875,100,CROSS,1
2026-07-28 09:12:32.287133,619.1944000001968,45409.96875,31240.037109375,28860.0,40099.91015625,39734.51171875,100,CROSS,1
2026-07-28 09:12:32.287133,621.1944000001495,45411.3046875,31239.2265625,28866.580078125,40102.8203125,39736.41796875,100,CROSS,1
2026-07-28 09:12:32.287133,623.1944000001022,45396.3828125,31223.873046875,28857.662109375,40089.66015625,39719.77734375,100,CROSS,1
2026-07-28 09:12:32.287133,625.1944000000549,45385.3671875,31214.14453125,28848.22265625,40079.50390625,39708.6171875,100,CROSS,1
2026-07-28 09:12:32.287133,627.1944000000076,45388.46484375,31218.9609375,28848.03125,40081.6484375,39712.48046875,100,CROSS,1
2026-07-28 09:12:32.287133,629.1943999999603,45401.72265625,31234.505859375,28857.94921875,40093.046875,39726.40625,100,CROSS,1
2026-07-28 09:12:32.287133,631.194399999913,45409.3046875,31243.375,28862.193359375,40100.53125,39735.65625,100,CROSS,1
2026-07-28 09:12:32.287133,633.1943999998657,45403.58203125,31237.3671875,28858.234375,40098.57421875,39732.03125,100,CROSS,1
2026-07-28 09:12:32.303359,635.1944000002732,45405.203125,31238.654296875,28858.091796875,40101.8203125,39734.75,100,CROSS,1
2026-07-28 09:12:32.303359,637.1943999997711,45402.76953125,31232.50390625,28856.7578125,40099.625,39730.83984375,100,CROSS,1
2026-07-28 09:12:32.303359,639.1944000001786,45400.33984375,31228.1640625,28860.142578125,40100.0546875,39728.40625,100,CROSS,1
2026-07-28 09:12:32.303359,641.1944000001313,45392.9453125,31219.15234375,28857.94921875,40094.85546875,39717.296875,100,CROSS,1
2026-07-28 09:12:32.303359,643.194400000084,45377.9765625,31204.46484375,28840.544921875,40076.9765625,39700.08203125,100,CROSS,1
2026-07-28 09:12:32.303359,645.1944000000367,45386.60546875,31216.529296875,28843.548828125,40082.4609375,39708.33203125,100,CROSS,1
2026-07-28 09:12:32.303359,647.1943999999894,45399.3359375,31229.021484375,28850.033203125,40093.94921875,39720.39453125,100,CROSS,1
2026-07-28 09:12:32.303359,649.1943999999421,45412.0703125,31237.509765625,28860.28515625,40106.73046875,39732.84375,100,CROSS,1
2026-07-28 09:12:32.303359,651.1943999998948,45413.640625,31238.03515625,28864.576171875,40110.06640625,39737.84765625,100,CROSS,1
2026-07-28 09:12:32.303359,653.1944000003023,45403.0546875,31225.3984375,28853.658203125,40098.765625,39723.97265625,100,CROSS,1
2026-07-28 09:12:32.303359,655.1943999998002,45390.84765625,31209.900390625,28843.501953125,40086.46484375,39706.37890625,100,CROSS,1
2026-07-28 09:12:32.303359,657.1944000002077,45387.2265625,31204.89453125,28845.169921875,40085.2734375,39701.2265625,100,CROSS,1
2026-07-28 09:12:32.303359,659.1944000001604,45381.50390625,31200.5078125,28842.642578125,40081.50390625,39697.078125,100,CROSS,1
2026-07-28 09:12:32.303359,661.1944000001131,45391.08984375,31213.525390625,28849.890625,40091.328125,39708.6640625,100,CROSS,1
2026-07-28 09:12:32.303359,663.1944000000658,45397.66796875,31224.396484375,28849.794921875,40094.5703125,39716.7734375,100,CROSS,1
2026-07-28 09:12:32.319590,665.1944000000185,45405.296875,31231.263671875,28853.849609375,40100.72265625,39725.6875,100,CROSS,1
2026-07-28 09:12:32.319590,667.1943999999712,45405.5859375,31229.78515625,28856.853515625,40101.4375,39729.171875,100,CROSS,1
2026-07-28 09:12:32.319590,669.1943999999239,45402.81640625,31229.880859375,28855.994140625,40101.0078125,39729.7421875,100,CROSS,1
2026-07-28 09:12:32.319590,671.1943999998766,45404.62890625,31229.30859375,28863.00390625,40105.5390625,39733.3203125,100,CROSS,1
2026-07-28 09:12:32.319590,673.1943999998293,45383.02734375,31207.611328125,28845.837890625,40087.75390625,39710.62109375,100,CROSS,1
2026-07-28 09:12:32.319590,675.1944000002368,45378.546875,31206.0390625,28841.259765625,40083.69921875,39704.328125,100,CROSS,1
2026-07-28 09:12:32.319590,677.1944000001895,45378.59375,31210.044921875,28838.3515625,40083.5546875,39705.8515625,100,CROSS,1
2026-07-28 09:12:32.319590,679.1944000001422,45396.19140625,31230.9765625,28851.46484375,40098.625,39724.44921875,100,CROSS,1
2026-07-28 09:12:32.319590,681.1944000000949,45415.3125,31247.28515625,28869.775390625,40115.55078125,39743.09375,100,CROSS,1
2026-07-28 09:12:32.319590,683.1944000000476,45401.38671875,31232.55078125,28855.421875,40102.53515625,39729.12109375,100,CROSS,1
2026-07-28 09:12:32.319590,685.1944000000003,45404.15234375,31236.794921875,28857.615234375,40104.296875,39732.84375,100,CROSS,1
2026-07-28 09:12:32.319590,687.194399999953,45406.6328125,31236.74609375,28861.4296875,40105.15625,39732.03125,100,CROSS,1
2026-07-28 09:12:32.319590,689.1943999999057,45403.53125,31229.642578125,28860.953125,40100.29296875,39725.26171875,100,CROSS,1
2026-07-28 09:12:32.319590,691.1943999998584,45400.1484375,31220.34375,28859.76171875,40096.09765625,39716.15234375,100,CROSS,1
2026-07-28 09:12:32.319590,693.1944000002659,45394.140625,31216.43359375,28853.1328125,40090.23046875,39710.66796875,100,CROSS,1
2026-07-28 09:12:32.335999,695.1943999997638,45402.390625,31227.640625,28855.326171875,40095.4296875,39720.82421875,100,CROSS,1
2026-07-28 09:12:32.335999,697.1944000001713,45413.1171875,31240.705078125,28862.57421875,40105.203125,39734.08203125,100,CROSS,1
2026-07-28 09:12:32.335999,699.194400000124,45420.22265625,31245.37890625,28869.53515625,40111.59375,39741.42578125,100,CROSS,1
2026-07-28 09:12:32.335999,701.1944000000767,45419.078125,31243.8046875,28869.6796875,40112.26171875,39743.28515625,100,CROSS,1
2026-07-28 09:12:32.335999,703.1944000000294,45411.78125,31235.888671875,28863.71875,40106.15625,39737.37109375,100,CROSS,1
2026-07-28 09:12:32.335999,705.1943999999821,45404.7734375,31226.208984375,28860.90625,40101.4375,39727.55078125,100,CROSS,1
2026-07-28 09:12:32.335999,707.1943999999348,45395.33203125,31215.193359375,28857.42578125,40095.5234375,39715.484375,100,CROSS,1
2026-07-28 09:12:32.335999,709.1943999998875,45387.4140625,31207.9453125,28850.748046875,40089.32421875,39707.71484375,100,CROSS,1
2026-07-28 09:12:32.335999,711.194400000295,45389.515625,31213.4765625,28849.556640625,40089.70703125,39712.52734375,100,CROSS,1
2026-07-28 09:12:32.335999,713.194399999793,45392.375,31219.67578125,28846.93359375,40092.6640625,39716.390625,100,CROSS,1
2026-07-28 09:12:32.352671,715.1944000002004,45403.296875,31229.642578125,28855.13671875,40103.96484375,39729.45703125,100,CROSS,1
2026-07-28 09:12:32.352671,717.1944000001531,45405.6796875,31230.8828125,28858.712890625,40107.875,39735.2734375,100,CROSS,1
2026-07-28 09:12:32.352671,719.1944000001058,45401.2421875,31227.544921875,28852.65625,40104.87109375,39732.31640625,100,CROSS,1
2026-07-28 09:12:32.352671,721.1944000000585,45398.3359375,31223.96875,28854.23046875,40105.44140625,39728.93359375,100,CROSS,1
2026-07-28 09:12:32.352671,723.1944000000112,45385.26953125,31210.330078125,28845.837890625,40094.5703125,39714.484375,100,CROSS,1
2026-07-28 09:12:32.352671,725.1943999999639,45380.26171875,31206.0390625,28844.740234375,40090.421875,39707.5703125,100,CROSS,1
2026-07-28 09:12:32.352671,727.1943999999166,45387.84375,31216.005859375,28852.990234375,40096.90625,39717.6328125,100,CROSS,1
2026-07-28 09:12:32.352671,729.1944000003241,45399.859375,31229.546875,28860.763671875,40105.73046875,39731.22265625,100,CROSS,1
2026-07-28 09:12:32.369583,731.194399999822,45406.6328125,31236.17578125,28864.673828125,40111.26171875,39737.609375,100,CROSS,1
2026-07-28 09:12:32.369583,733.1944000002295,45407.015625,31236.080078125,28864.291015625,40112.40234375,39738.32421875,100,CROSS,1
2026-07-28 09:12:32.369583,735.1944000001822,45399.09765625,31229.689453125,28853.419921875,40103.390625,39731.5546875,100,CROSS,1
2026-07-28 09:12:32.369583,737.1944000001349,45397.66796875,31225.732421875,28851.46484375,40102.484375,39725.9296875,100,CROSS,1
2026-07-28 09:12:32.369583,739.1944000000876,45398.4296875,31221.822265625,28858.330078125,40106.15625,39722.3984375,100,CROSS,1
2026-07-28 09:12:32.369583,741.1944000000403,45393.7578125,31217.482421875,28860.572265625,40104.10546875,39715.9609375,100,CROSS,1
2026-07-28 09:12:32.369583,743.194399999993,45375.87890625,31200.4609375,28842.73828125,40086.55859375,39698.796875,100,CROSS,1
2026-07-28 09:12:32.369583,745.1943999999457,45382.93359375,31210.140625,28842.9765625,40091.47265625,39706.1875,100,CROSS,1
2026-07-28 09:12:32.385778,747.1943999998985,45398.859375,31228.44921875,28852.84765625,40105.15625,39722.2578125,100,CROSS,1
2026-07-28 09:12:32.385778,749.1943999998512,45409.3046875,31234.697265625,28865.0546875,40114.359375,39735.98828125,100,CROSS,1
2026-07-28 09:12:32.385778,751.1944000002586,45399.14453125,31223.77734375,28854.27734375,40103.8671875,39727.73828125,100,CROSS,1
2026-07-28 09:12:32.385778,753.1943999997566,45401.1484375,31226.494140625,28853.275390625,40106.109375,39728.93359375,100,CROSS,1
2026-07-28 09:12:32.385778,755.194400000164,45403.53125,31224.396484375,28859.09375,40108.63671875,39727.8828125,100,CROSS,1
2026-07-28 09:12:32.385778,757.1944000001167,45387.08203125,31206.419921875,28849.080078125,40093.6640625,39706.47265625,100,CROSS,1
2026-07-28 09:12:32.385778,759.1944000000694,45381.359375,31204.03515625,28846.267578125,40090.61328125,39702.46875,100,CROSS,1
2026-07-28 09:12:32.385778,761.1944000000221,45380.73828125,31207.326171875,28840.49609375,40089.27734375,39703.32421875,100,CROSS,1
2026-07-28 09:12:32.402296,763.1943999999748,45390.609375,31220.96484375,28845.02734375,40097.00390625,39715.34375,100,CROSS,1
2026-07-28 09:12:32.402296,765.1943999999276,45405.05859375,31234.6484375,28856.947265625,40108.63671875,39728.59765625,100,CROSS,1
2026-07-28 09:12:32.402296,767.1943999998803,45409.11328125,31238.224609375,28861.572265625,40113.0703125,39732.84375,100,CROSS,1
2026-07-28 09:12:32.402296,769.1944000002877,45409.20703125,31238.46484375,28864.1484375,40114.359375,39736.703125,100,CROSS,1
2026-07-28 09:12:32.402296,771.1943999997857,45388.98828125,31217.29296875,28846.45703125,40097.859375,39716.8671875,100,CROSS,1
2026-07-28 09:12:32.402296,773.1944000001931,45379.0234375,31206.896484375,28838.54296875,40088.32421875,39701.9921875,100,CROSS,1
2026-07-28 09:12:32.402296,775.1944000001458,45384.83984375,31211.09375,28845.7421875,40091.18359375,39705.7578125,100,CROSS,1
2026-07-28 09:12:32.418392,777.1944000000985,45384.078125,31211.09375,28842.9296875,40089.5625,39705.328125,100,CROSS,1
2026-07-28 09:12:32.418392,779.1944000000512,45397.953125,31228.35546875,28850.271484375,40100.72265625,39719.82421875,100,CROSS,1
2026-07-28 09:12:32.418392,781.194400000004,45407.203125,31235.841796875,28855.755859375,40108.3515625,39729.98046875,100,CROSS,1
2026-07-28 09:12:32.436346,783.1943999999567,45405.96484375,31233.21875,28853.849609375,40106.73046875,39728.93359375,100,CROSS,1
2026-07-28 09:12:32.436346,785.1943999999094,45406.48828125,31235.36328125,28854.8984375,40106.73046875,39731.74609375,100,CROSS,1
2026-07-28 09:12:32.436346,787.1944000003168,45404.10546875,31231.787109375,28853.849609375,40104.01171875,39727.9765625,100,CROSS,1
2026-07-28 09:12:32.436346,789.1943999998148,45404.34375,31227.640625,28859.474609375,40104.53515625,39723.58984375,100,CROSS,1
2026-07-28 09:12:32.436346,791.1944000002222,45391.0390625,31211.76171875,28851.03515625,40090.56640625,39706.56640625,100,CROSS,1
2026-07-28 09:12:32.436346,793.1944000001749,45388.65625,31210.330078125,28848.078125,40085.55859375,39703.27734375,100,CROSS,1
2026-07-28 09:12:32.436346,795.1944000001276,45397.90625,31223.443359375,28853.228515625,40092.04296875,39714.484375,100,CROSS,1
2026-07-28 09:12:32.436346,797.1944000000803,45406.34765625,31233.505859375,28855.947265625,40099.1015625,39723.3515625,100,CROSS,1
2026-07-28 09:12:32.436346,799.194400000033,45415.3125,31243.041015625,28864.81640625,40107.4453125,39733.4609375,100,CROSS,1
2026-07-28 09:12:32.436346,801.1943999999858,45397.859375,31226.828125,28845.93359375,40090.70703125,39717.8671875,100,CROSS,1
2026-07-28 09:12:32.436346,803.1943999999385,45392.0390625,31221.25,28839.734375,40087.1328125,39713.9609375,100,CROSS,1
2026-07-28 09:12:32.436346,805.1943999998912,45387.4140625,31213.572265625,28838.3046875,40083.79296875,39706.42578125,100,CROSS,1
2026-07-28 09:12:32.436346,807.1943999998439,45390.84765625,31214.240234375,28844.50390625,40084.078125,39704.66015625,100,CROSS,1
2026-07-28 09:12:32.436346,809.1944000002513,45389.703125,31212.953125,28849.17578125,40083.36328125,39703.8046875,100,CROSS,1
2026-07-28 09:12:32.436346,811.194400000204,45374.921875,31202.224609375,28832.10546875,40068.53515625,39690.9296875,100,CROSS,1
2026-07-28 09:12:32.451891,813.1944000001567,45389.84765625,31219.724609375,28838.58984375,40080.59765625,39706.51953125,100,CROSS,1
2026-07-28 09:12:32.451891,815.1944000001095,45398.8125,31229.451171875,28845.599609375,40090.8984375,39718.34765625,100,CROSS,1
2026-07-28 09:12:32.451891,817.1944000000622,45405.05859375,31234.6484375,28851.51171875,40097.71875,39727.12109375,100,CROSS,1
2026-07-28 09:12:32.451891,819.1944000000149,45412.6875,31242.517578125,28862.193359375,40107.16015625,39737.89453125,100,CROSS,1
2026-07-28 09:12:32.451891,821.1943999999676,45392.28125,31220.8203125,28846.982421875,40089.515625,39715.484375,100,CROSS,1
2026-07-28 09:12:32.451891,823.1943999999203,45386.22265625,31212.23828125,28843.357421875,40083.890625,39704.51953125,100,CROSS,1
2026-07-28 09:12:32.451891,825.194399999873,45382.41015625,31207.70703125,28843.263671875,40080.12109375,39699.12890625,100,CROSS,1
2026-07-28 09:12:32.451891,827.1944000002804,45389.0859375,31217.244140625,28847.935546875,40085.75,39707.37890625,100,CROSS,1
2026-07-28 09:12:32.451891,829.1943999997784,45401.81640625,31232.7890625,28855.23046875,40095.3828125,39720.68359375,100,CROSS,1
2026-07-28 09:12:32.467913,831.1944000001859,45399.57421875,31231.55078125,28849.22265625,40092.1875,39718.296875,100,CROSS,1
2026-07-28 09:12:32.467913,833.1944000001386,45403.15234375,31231.59765625,28848.888671875,40096.4296875,39722.828125,100,CROSS,1
2026-07-28 09:12:32.467913,835.1944000000913,45406.96484375,31235.888671875,28851.46484375,40100.1484375,39727.21484375,100,CROSS,1
2026-07-28 09:12:32.467913,837.194400000044,45404.48828125,31231.119140625,28853.658203125,40099.2890625,39724.546875,100,CROSS,1
2026-07-28 09:12:32.467913,839.1943999999967,45402.390625,31224.5390625,28857.90234375,40100.0546875,39719.30078125,100,CROSS,1
2026-07-28 09:12:32.484671,841.1943999999494,45384.41015625,31206.75390625,28845.02734375,40085.03515625,39698.796875,100,CROSS,1
2026-07-28 09:12:32.484671,843.1943999999021,45381.359375,31206.5625,28841.546875,40081.83984375,39696.171875,100,CROSS,1
2026-07-28 09:12:32.484671,845.1944000003095,45389.1328125,31217.1484375,28843.8359375,40087.41796875,39705.28125,100,CROSS,1
2026-07-28 09:12:32.484671,847.1943999998075,45405.10546875,31234.79296875,28852.943359375,40100.484375,39721.3515625,100,CROSS,1
2026-07-28 09:12:32.484671,849.194400000215,45416.64453125,31243.56640625,28862.8125,40111.0234375,39732.890625,100,CROSS,1
2026-07-28 09:12:32.484671,851.1944000001677,45410.49609375,31239.798828125,28859.904296875,40108.16015625,39731.31640625,100,CROSS,1
2026-07-28 09:12:32.484671,853.1944000001204,45415.69140625,31244.47265625,28866.103515625,40113.12109375,39736.5625,100,CROSS,1
2026-07-28 09:12:32.484671,855.1944000000731,45411.6875,31236.365234375,28867.8671875,40109.06640625,39730.21875,100,CROSS,1
2026-07-28 09:12:32.484671,857.1944000000258,45396.4765625,31219.62890625,28857.04296875,40093.94921875,39711.62109375,100,CROSS,1
2026-07-28 09:12:32.484671,859.1943999999785,45391.421875,31214.240234375,28852.037109375,40088.84765625,39703.9921875,100,CROSS,1
2026-07-28 09:12:32.501248,861.1943999999312,45382.6484375,31208.900390625,28838.017578125,40078.9296875,39696.79296875,100,CROSS,1
2026-07-28 09:12:32.501248,863.1943999998839,45392.56640625,31222.203125,28841.642578125,40088.1328125,39710.2890625,100,CROSS,1
2026-07-28 09:12:32.501248,865.1943999998366,45401.29296875,31231.359375,28847.267578125,40096.09765625,39720.63671875,100,CROSS,1
2026-07-28 09:12:32.501248,867.1944000002441,45407.25390625,31235.984375,28852.2265625,40101.390625,39727.9296875,100,CROSS,1
2026-07-28 09:12:32.501248,869.1944000001968,45405.5859375,31232.98046875,28851.654296875,40099.1953125,39726.64453125,100,CROSS,1
2026-07-28 09:12:32.501248,871.1944000001495,45396.0,31219.009765625,28844.7890625,40088.0859375,39713.625,100,CROSS,1
2026-07-28 09:12:32.501248,873.1944000001022,45393.61328125,31214.14453125,28846.6484375,40088.27734375,39708.046875,100,CROSS,1
2026-07-28 09:12:32.501248,875.1944000000549,45384.5546875,31204.41796875,28840.736328125,40079.7890625,39696.83984375,100,CROSS,1
2026-07-28 09:12:32.501248,877.1944000000076,45390.18359375,31212.71484375,28847.173828125,40084.3671875,39703.66015625,100,CROSS,1
2026-07-28 09:12:32.501248,879.1943999999603,45385.22265625,31213.810546875,28839.49609375,40081.171875,39700.703125,100,CROSS,1
2026-07-28 09:12:32.516772,881.194399999913,45392.47265625,31223.728515625,28841.974609375,40088.70703125,39711.3828125,100,CROSS,1
2026-07-28 09:12:32.516772,883.1943999998657,45401.86328125,31231.740234375,28850.51171875,40097.95703125,39720.921875,100,CROSS,1
2026-07-28 09:12:32.516772,885.1944000002732,45406.39453125,31236.65234375,28853.943359375,40101.8671875,39725.1640625,100,CROSS,1
2026-07-28 09:12:32.516772,887.1943999997711,45404.48828125,31232.12109375,28855.373046875,40100.1953125,39721.015625,100,CROSS,1
2026-07-28 09:12:32.516772,889.1944000001786,45393.61328125,31217.53125,28848.794921875,40089.8984375,39705.18359375,100,CROSS,1
2026-07-28 09:12:32.533654,891.1944000001313,45387.1796875,31211.6171875,28847.125,40083.6015625,39697.4609375,100,CROSS,1
2026-07-28 09:12:32.533654,893.194400000084,45374.68359375,31200.794921875,28835.537109375,40072.3984375,39687.2109375,100,CROSS,1
2026-07-28 09:12:32.533654,895.1944000000367,45390.66015625,31218.580078125,28845.12109375,40086.46484375,39703.8984375,100,CROSS,1
2026-07-28 09:12:32.533654,897.1943999999894,45404.34375,31233.7421875,28853.466796875,40097.2890625,39718.05859375,100,CROSS,1
2026-07-28 09:12:32.533654,899.1943999999421,45399.71875,31228.83203125,28847.267578125,40091.8984375,39714.0078125,100,CROSS,1
2026-07-28 09:12:32.533654,901.1943999998948,45398.765625,31229.0703125,28846.314453125,40090.8046875,39715.0546875,100,CROSS,1
2026-07-28 09:12:32.533654,903.1944000003023,45396.33203125,31224.0625,28845.265625,40089.80078125,39713.53125,100,CROSS,1
2026-07-28 09:12:32.533654,905.1943999998002,45391.8984375,31217.197265625,28844.263671875,40087.41796875,39707.5703125,100,CROSS,1
2026-07-28 09:12:32.567286,907.1944000002077,45398.09765625,31219.4375,28853.705078125,40093.5234375,39709.71484375,100,CROSS,1
2026-07-28 09:12:32.567286,909.1944000001604,45378.40234375,31200.697265625,28837.73046875,40074.2578125,39690.21484375,100,CROSS,1
2026-07-28 09:12:32.567286,911.1944000001131,45382.07421875,31208.279296875,28835.443359375,40075.2578125,39694.171875,100,CROSS,1
2026-07-28 09:12:32.583760,913.1944000000658,45390.84765625,31218.0078125,28837.158203125,40080.59765625,39702.421875,100,CROSS,1
2026-07-28 09:12:32.583760,915.1944000000185,45397.66796875,31223.443359375,28843.310546875,40087.75390625,39710.0,100,CROSS,1
2026-07-28 09:12:32.583760,917.1943999999712,45406.15625,31231.693359375,28854.181640625,40096.52734375,39720.63671875,100,CROSS,1
2026-07-28 09:12:32.583760,919.1943999999239,45400.33984375,31226.3046875,28848.5078125,40092.08984375,39716.62890625,100,CROSS,1
2026-07-28 09:12:32.583760,921.1943999998766,45390.5625,31212.23828125,28840.353515625,40083.5546875,39703.32421875,100,CROSS,1
2026-07-28 09:12:32.583760,923.1943999998293,45379.453125,31198.265625,28834.107421875,40074.01953125,39688.87890625,100,CROSS,1
2026-07-28 09:12:32.583760,925.1944000002368,45373.68359375,31194.404296875,28833.05859375,40070.73046875,39684.109375,100,CROSS,1
2026-07-28 09:12:32.583760,927.1944000001895,45378.546875,31205.181640625,28840.162109375,40078.12109375,39693.02734375,100,CROSS,1
2026-07-28 09:12:32.583760,929.1944000001422,45374.875,31205.32421875,28830.484375,40073.11328125,39690.640625,100,CROSS,1
2026-07-28 09:12:32.583760,931.1944000000949,45377.1640625,31209.185546875,28825.66796875,40074.54296875,39692.359375,100,CROSS,1
2026-07-28 09:12:32.583760,933.1944000000476,45387.60546875,31218.197265625,28834.966796875,40085.2734375,39704.56640625,100,CROSS,1
2026-07-28 09:12:32.583760,935.1944000000003,45391.0390625,31220.296875,28839.92578125,40086.703125,39707.76171875,100,CROSS,1
2026-07-28 09:12:32.583760,937.194399999953,45388.703125,31216.052734375,28839.591796875,40086.08203125,39704.46875,100,CROSS,1
2026-07-28 09:12:32.583760,939.1943999999057,45385.74609375,31208.185546875,28840.259765625,40083.6015625,39698.17578125,100,CROSS,1
2026-07-28 09:12:32.583760,941.1943999998584,45380.12109375,31199.697265625,28839.2578125,40076.640625,39689.1640625,100,CROSS,1
2026-07-28 09:12:32.583760,943.1944000002659,45372.5390625,31195.26171875,28832.486328125,40069.05859375,39683.7265625,100,CROSS,1
2026-07-28 09:12:32.583760,945.1943999997638,45374.5390625,31199.505859375,28826.4296875,40066.76953125,39685.015625,100,CROSS,1
2026-07-28 09:12:32.600720,947.1944000001713,45395.33203125,31219.15234375,28836.77734375,40082.41015625,39702.65625,100,CROSS,1
2026-07-28 09:12:32.600720,949.194400000124,45399.05078125,31220.34375,28842.451171875,40085.796875,39707.33203125,100,CROSS,1
2026-07-28 09:12:32.600720,951.1944000000767,45395.37890625,31218.150390625,28840.591796875,40083.6015625,39706.47265625,100,CROSS,1
2026-07-28 09:12:32.600720,953.1944000000294,45395.28515625,31220.439453125,28841.1171875,40085.17578125,39707.37890625,100,CROSS,1
2026-07-28 09:12:32.600720,955.1943999999821,45387.94140625,31210.998046875,28839.2109375,40081.88671875,39699.51171875,100,CROSS,1
2026-07-28 09:12:32.600720,957.1943999999348,45382.7421875,31205.75390625,28840.736328125,40078.453125,39693.8359375,100,CROSS,1
2026-07-28 09:12:32.600720,959.1943999998875,45362.3359375,31188.634765625,28822.091796875,40059.09375,39675.859375,100,CROSS,1
2026-07-28 09:12:32.600720,961.194400000295,45365.38671875,31194.83203125,28818.275390625,40061.765625,39678.86328125,100,CROSS,1
2026-07-28 09:12:32.600720,963.194399999793,45385.26953125,31213.90625,28830.912109375,40078.359375,39698.03125,100,CROSS,1
2026-07-28 09:12:32.600720,965.1944000002004,45384.5546875,31213.4296875,28826.763671875,40076.1640625,39696.36328125,100,CROSS,1
2026-07-28 09:12:32.600720,967.1944000001531,45394.6171875,31221.298828125,28836.205078125,40085.65234375,39707.37890625,100,CROSS,1
2026-07-28 09:12:32.600720,969.1944000001058,45396.85546875,31224.158203125,28840.068359375,40087.41796875,39711.05078125,100,CROSS,1
2026-07-28 09:12:32.600720,971.1944000000585,45394.51953125,31218.0078125,28842.404296875,40085.98828125,39706.7578125,100,CROSS,1
2026-07-28 09:12:32.600720,973.1944000000112,45386.3671875,31208.900390625,28840.974609375,40081.36328125,39696.83984375,100,CROSS,1
2026-07-28 09:12:32.600720,975.1943999999639,45381.45703125,31204.46484375,28839.01953125,40076.1640625,39690.44921875,100,CROSS,1
2026-07-28 09:12:32.600720,977.1943999999166,45381.88671875,31203.798828125,28837.970703125,40074.734375,39690.0703125,100,CROSS,1
2026-07-28 09:12:32.617256,979.1944000003241,45380.07421875,31203.845703125,28831.818359375,40070.82421875,39689.1171875,100,CROSS,1
2026-07-28 09:12:32.617256,981.194399999822,45393.13671875,31215.95703125,28838.3515625,40082.6015625,39701.2265625,100,CROSS,1
2026-07-28 09:12:32.617256,983.1944000002295,45394.28125,31216.482421875,28839.447265625,40084.55859375,39704.0390625,100,CROSS,1
2026-07-28 09:12:32.617256,985.1944000001822,45391.75390625,31214.859375,28834.869140625,40079.21484375,39702.84765625,100,CROSS,1
2026-07-28 09:12:32.617256,987.1944000001349,45382.36328125,31205.419921875,28823.474609375,40067.8671875,39689.01953125,100,CROSS,1
2026-07-28 09:12:32.617256,989.1944000000876,45388.1796875,31206.32421875,28831.24609375,40074.2578125,39692.12109375,100,CROSS,1
2026-07-28 09:12:32.633338,991.1944000000403,45394.140625,31207.23046875,28844.072265625,40080.59765625,39698.03125,100,CROSS,1
2026-07-28 09:12:32.633338,993.194399999993,45385.890625,31203.369140625,28840.736328125,40074.87890625,39692.359375,100,CROSS,1
2026-07-28 09:12:32.633338,995.1943999999457,45394.90234375,31217.912109375,28845.07421875,40083.12890625,39701.2734375,100,CROSS,1
2026-07-28 09:12:32.633338,997.1943999998985,45399.8125,31226.3046875,28844.025390625,40087.0859375,39707.90234375,100,CROSS,1
2026-07-28 09:12:32.633338,999.1943999998512,45391.9453125,31218.150390625,28836.349609375,40080.93359375,39703.13671875,100,CROSS,1
2026-07-28 09:12:32.633338,1001.1944000002586,45392.47265625,31219.533203125,28836.396484375,40082.171875,39706.28125,100,CROSS,1
2026-07-28 09:12:32.633338,1003.1943999997566,45398.05078125,31223.5859375,28843.69140625,40089.0859375,39711.48046875,100,CROSS,1
2026-07-28 09:12:32.633338,1005.194400000164,45395.94921875,31218.67578125,28846.6015625,40088.23046875,39708.1875,100,CROSS,1
2026-07-28 09:12:32.633338,1007.1944000001167,45375.78125,31198.45703125,28830.912109375,40069.48828125,39687.58984375,100,CROSS,1
2026-07-28 09:12:32.648483,1009.1944000000694,45372.44140625,31197.693359375,28829.529296875,40066.9140625,39685.921875,100,CROSS,1
2026-07-28 09:12:32.648483,1011.1944000000221,45377.2109375,31205.5625,28832.34375,40071.4453125,39693.50390625,100,CROSS,1
2026-07-28 09:12:32.648483,1013.1943999999748,45389.703125,31218.67578125,28838.11328125,40081.41015625,39704.7109375,100,CROSS,1
2026-07-28 09:12:32.648483,1015.1943999999276,45402.578125,31231.310546875,28848.5078125,40094.6640625,39717.25,100,CROSS,1
2026-07-28 09:12:32.648483,1017.1943999998803,45400.38671875,31230.8828125,28846.41015625,40094.4296875,39718.44140625,100,CROSS,1
2026-07-28 09:12:32.648483,1019.1944000002877,45401.9609375,31231.787109375,28847.5546875,40096.09765625,39719.6328125,100,CROSS,1
2026-07-28 09:12:32.648483,1021.1943999997857,45402.484375,31227.92578125,28851.98828125,40096.90625,39717.8203125,100,CROSS,1
2026-07-28 09:12:32.648483,1023.1944000001931,45397.66796875,31220.8203125,28850.224609375,40094.1875,39709.046875,100,CROSS,1
2026-07-28 09:12:32.648483,1025.1944000001458,45395.71484375,31217.388671875,28853.37109375,40093.47265625,39706.04296875,100,CROSS,1
2026-07-28 09:12:32.648483,1027.1944000000985,45383.125,31206.32421875,28840.783203125,40079.64453125,39693.265625,100,CROSS,1
2026-07-28 09:12:32.648483,1029.1944000000512,45391.27734375,31217.86328125,28843.0234375,40086.1328125,39703.18359375,100,CROSS,1
2026-07-28 09:12:32.664747,1031.194400000004,45403.7734375,31231.359375,28851.2265625,40098.09765625,39716.8671875,100,CROSS,1
2026-07-28 09:12:32.664747,1033.1943999999567,45404.24609375,31231.501953125,28854.421875,40101.24609375,39720.73046875,100,CROSS,1
2026-07-28 09:12:32.664747,1035.1943999999094,45410.11328125,31237.892578125,28862.384765625,40107.58984375,39731.171875,100,CROSS,1
2026-07-28 09:12:32.664747,1037.1944000003168,45402.29296875,31226.494140625,28856.185546875,40098.57421875,39720.5859375,100,CROSS,1
2026-07-28 09:12:32.664747,1039.1943999998148,45400.33984375,31222.203125,28859.33203125,40097.3828125,39715.9140625,100,CROSS,1
2026-07-28 09:12:32.664747,1041.1944000002222,45388.75,31208.708984375,28849.65234375,40084.26953125,39698.84375,100,CROSS,1
2026-07-28 09:12:32.680835,1043.194400000175,45382.36328125,31202.3203125,28840.640625,40075.87890625,39693.02734375,100,CROSS,1
2026-07-28 09:12:32.680835,1045.1944000001276,45380.59765625,31203.892578125,28832.724609375,40072.4921875,39692.7890625,100,CROSS,1
2026-07-28 09:12:32.680835,1047.1944000000803,45383.078125,31210.330078125,28826.669921875,40073.78125,39696.26953125,100,CROSS,1
2026-07-28 09:12:32.680835,1049.194400000033,45393.99609375,31220.248046875,28835.82421875,40085.08203125,39708.28515625,100,CROSS,1
2026-07-28 09:12:32.680835,1051.1943999999858,45397.71484375,31225.63671875,28840.068359375,40089.8515625,39715.10546875,100,CROSS,1
2026-07-28 09:12:32.680835,1053.1943999999385,45401.484375,31229.212890625,28844.7890625,40094.33203125,39719.96875,100,CROSS,1
2026-07-28 09:12:32.680835,1055.1943999998912,45402.0078125,31225.828125,28854.087890625,40097.57421875,39718.7734375,100,CROSS,1
2026-07-28 09:12:32.697813,1057.1943999998439,45387.1796875,31208.708984375,28845.455078125,40084.796875,39699.890625,100,CROSS,1
2026-07-28 09:12:32.697813,1059.1944000002513,45371.30078125,31193.87890625,28831.533203125,40069.6796875,39683.87109375,100,CROSS,1
2026-07-28 09:12:32.697813,1061.194400000204,45376.59375,31202.12890625,28830.673828125,40073.11328125,39691.5,100,CROSS,1
2026-07-28 09:12:32.697813,1063.1944000001567,45398.52734375,31225.732421875,28847.41015625,40092.6171875,39713.1015625,100,CROSS,1
2026-07-28 09:12:32.697813,1065.1944000001095,45403.0546875,31232.025390625,28851.51171875,40097.14453125,39718.5859375,100,CROSS,1
2026-07-28 09:12:32.697813,1067.1944000000622,45392.9453125,31222.87109375,28839.447265625,40088.23046875,39710.66796875,100,CROSS,1
2026-07-28 09:12:32.697813,1069.1944000000149,45394.234375,31224.158203125,28839.06640625,40090.70703125,39714.4375,100,CROSS,1
2026-07-28 09:12:32.697813,1071.1943999999676,45395.76171875,31222.060546875,28844.50390625,40093.1875,39712.86328125,100,CROSS,1
2026-07-28 09:12:32.697813,1073.1943999999203,45392.47265625,31215.765625,28844.169921875,40088.41796875,39704.8515625,100,CROSS,1
2026-07-28 09:12:32.714362,1075.194399999873,45391.8515625,31214.05078125,28850.3671875,40089.66015625,39703.27734375,100,CROSS,1
2026-07-28 09:12:32.714362,1077.1944000002804,45382.02734375,31207.18359375,28841.880859375,40078.8828125,39695.5546875,100,CROSS,1
2026-07-28 09:12:32.714362,1079.1943999997784,45386.69921875,31215.2890625,28839.591796875,40080.93359375,39701.515625,100,CROSS,1
2026-07-28 09:12:32.714362,1081.1944000001859,45404.390625,31234.6484375,28852.2265625,40098.43359375,39719.73046875,100,CROSS,1
2026-07-28 09:12:32.714362,1083.1944000001386,45408.875,31235.603515625,28857.47265625,40104.82421875,39726.9765625,100,CROSS,1
2026-07-28 09:12:32.714362,1085.1944000000913,45404.24609375,31232.646484375,28855.8515625,40100.625,39727.59765625,100,CROSS,1
2026-07-28 09:12:32.714362,1087.194400000044,45382.171875,31211.427734375,28835.728515625,40079.12109375,39706.56640625,100,CROSS,1
2026-07-28 09:12:32.714362,1089.1943999999967,45370.91796875,31199.36328125,28824.904296875,40070.48828125,39692.3125,100,CROSS,1
2026-07-28 09:12:32.730399,1091.1943999999494,45368.8671875,31195.21484375,28823.140625,40068.15234375,39686.875,100,CROSS,1
2026-07-28 09:12:32.730399,1093.194399999902,45374.68359375,31203.51171875,28828.576171875,40073.97265625,39695.171875,100,CROSS,1
2026-07-28 09:12:32.730399,1095.1944000003095,45378.26171875,31209.328125,28830.1015625,40076.9296875,39702.1328125,100,CROSS,1
2026-07-28 09:12:32.730399,1097.1943999998075,45373.34765625,31204.275390625,28822.99609375,40070.82421875,39698.26953125,100,CROSS,1
2026-07-28 09:12:32.730399,1099.194400000215,45378.1171875,31208.708984375,28825.28515625,40077.8828125,39704.23046875,100,CROSS,1
2026-07-28 09:12:32.730399,1101.1944000001677,45382.07421875,31213.3828125,28829.578125,40083.5546875,39710.71875,100,CROSS,1
2026-07-28 09:12:32.746847,1103.1944000001204,45386.890625,31215.099609375,28835.109375,40086.1796875,39714.0078125,100,CROSS,1
2026-07-28 09:12:32.746847,1105.194400000073,45382.6484375,31207.8515625,28835.681640625,40084.9375,39708.33203125,100,CROSS,1
2026-07-28 09:12:32.746847,1107.1944000000258,45367.8671875,31193.212890625,28825.4296875,40072.16015625,39690.40234375,100,CROSS,1
2026-07-28 09:12:32.746847,1109.1943999999785,45357.8984375,31184.294921875,28815.796875,40059.85546875,39677.95703125,100,CROSS,1
2026-07-28 09:12:32.746847,1111.1943999999312,45363.765625,31192.830078125,28816.751953125,40063.09765625,39683.87109375,100,CROSS,1
2026-07-28 09:12:32.746847,1113.194399999884,45384.74609375,31213.66796875,28831.4375,40080.12109375,39703.8046875,100,CROSS,1
2026-07-28 09:12:32.746847,1115.1943999998366,45392.8046875,31220.630859375,28837.158203125,40087.03515625,39711.52734375,100,CROSS,1
2026-07-28 09:12:32.746847,1117.194400000244,45392.7109375,31219.4375,28838.11328125,40088.1796875,39713.9609375,100,CROSS,1
2026-07-28 09:12:32.746847,1119.1944000001968,45387.55859375,31218.0546875,28834.060546875,40084.55859375,39710.765625,100,CROSS,1
2026-07-28 09:12:32.763365,1121.1944000001495,45389.32421875,31217.482421875,28840.736328125,40087.609375,39710.90625,100,CROSS,1
2026-07-28 09:12:32.763365,1123.1944000001022,45385.3671875,31211.427734375,28842.5,40085.12890625,39703.9453125,100,CROSS,1
2026-07-28 09:12:32.763365,1125.1944000000549,45368.24609375,31194.35546875,28826.048828125,40067.8203125,39684.921875,100,CROSS,1
2026-07-28 09:12:32.763365,1127.1944000000076,45373.921875,31200.220703125,28827.431640625,40070.015625,39689.40234375,100,CROSS,1
2026-07-28 09:12:32.763365,1129.1943999999603,45380.98046875,31210.712890625,28830.435546875,40076.49609375,39699.703125,100,CROSS,1
2026-07-28 09:12:32.763365,1131.194399999913,45388.80078125,31218.484375,28835.251953125,40084.5078125,39709.90625,100,CROSS,1
2026-07-28 09:12:32.763365,1133.1943999998657,45393.28125,31222.87109375,28840.353515625,40090.8515625,39717.6328125,100,CROSS,1
2026-07-28 09:12:32.763365,1135.1944000002732,45385.9375,31217.482421875,28831.341796875,40084.4609375,39711.765625,100,CROSS,1
2026-07-28 09:12:32.763365,1137.1943999997711,45384.5546875,31213.095703125,28830.0078125,40084.26953125,39708.140625,100,CROSS,1
2026-07-28 09:12:32.763365,1139.1944000001786,45379.8359375,31205.65625,28831.62890625,40082.79296875,39701.1796875,100,CROSS,1
2026-07-28 09:12:32.763365,1141.1944000001313,45383.5546875,31208.8046875,28840.49609375,40089.515625,39703.66015625,100,CROSS,1
2026-07-28 09:12:32.763365,1143.194400000084,45372.109375,31197.408203125,28830.81640625,40076.2109375,39692.8828125,100,CROSS,1
2026-07-28 09:12:32.779662,1145.1944000000367,45366.0078125,31194.642578125,28819.134765625,40066.9140625,39689.78515625,100,CROSS,1
2026-07-28 09:12:32.779662,1147.1943999999894,45385.5546875,31215.00390625,28831.67578125,40083.84375,39710.57421875,100,CROSS,1
2026-07-28 09:12:32.779662,1149.194399999942,45391.375,31220.486328125,28838.494140625,40091.18359375,39717.8671875,100,CROSS,1
2026-07-28 09:12:32.779662,1151.1943999998948,45396.76171875,31225.970703125,28845.646484375,40096.09765625,39725.0234375,100,CROSS,1
2026-07-28 09:12:32.779662,1153.1944000003023,45389.89453125,31218.24609375,28842.166015625,40089.9453125,39719.015625,100,CROSS,1
2026-07-28 09:12:32.779662,1155.1943999998002,45371.6796875,31198.88671875,28827.62109375,40073.734375,39698.3671875,100,CROSS,1
2026-07-28 09:12:32.779662,1157.1944000002077,45367.9609375,31192.591796875,28825.71484375,40070.6796875,39691.5,100,CROSS,1
2026-07-28 09:12:32.796136,1159.1944000001604,45363.62109375,31188.634765625,28823.80859375,40066.8671875,39685.0625,100,CROSS,1
2026-07-28 09:12:32.796136,1161.194400000113,45367.390625,31192.734375,28824.6171875,40067.9140625,39690.40234375,100,CROSS,1
2026-07-28 09:12:32.796136,1163.1944000000658,45381.50390625,31205.705078125,28829.958984375,40078.0234375,39704.0390625,100,CROSS,1
2026-07-28 09:12:32.796136,1165.1944000000185,45384.79296875,31206.75390625,28828.00390625,40079.8359375,39704.375,100,CROSS,1
2026-07-28 09:12:32.796136,1167.1943999999712,45386.65234375,31209.7578125,28830.578125,40083.9375,39708.046875,100,CROSS,1
2026-07-28 09:12:32.796136,1169.194399999924,45390.66015625,31213.4765625,28833.91796875,40087.89453125,39712.09765625,100,CROSS,1
2026-07-28 09:12:32.812622,1171.1943999998766,45389.5625,31207.802734375,28836.681640625,40086.796875,39707.5234375,100,CROSS,1
2026-07-28 09:12:32.812622,1173.1943999998293,45382.6953125,31197.359375,28834.251953125,40078.9296875,39695.6953125,100,CROSS,1
2026-07-28 09:12:32.812622,1175.1944000002368,45364.14453125,31180.2890625,28819.849609375,40061.8125,39677.05078125,100,CROSS,1
2026-07-28 09:12:32.812622,1177.1944000001895,45358.7109375,31176.5703125,28812.458984375,40055.70703125,39672.6640625,100,CROSS,1
2026-07-28 09:12:32.812622,1179.1944000001422,45366.91015625,31189.349609375,28813.650390625,40061.90625,39683.34765625,100,CROSS,1
2026-07-28 09:12:32.812622,1181.194400000095,45383.02734375,31206.611328125,28824.6171875,40078.16796875,39700.89453125,100,CROSS,1
2026-07-28 09:12:32.812622,1183.1944000000476,45386.12890625,31210.568359375,28829.482421875,40084.03125,39708.33203125,100,CROSS,1
2026-07-28 09:12:32.812622,1185.1944000000003,45383.31640625,31208.947265625,28829.052734375,40082.078125,39708.6171875,100,CROSS,1
2026-07-28 09:12:32.812622,1187.194399999953,45380.50390625,31205.80078125,28826.716796875,40080.21875,39704.0390625,100,CROSS,1
2026-07-28 09:12:32.812622,1189.1943999999057,45372.921875,31196.64453125,28824.09375,40073.828125,39693.7890625,100,CROSS,1
2026-07-28 09:12:32.829472,1191.1943999998584,45366.625,31187.107421875,28823.283203125,40066.34375,39683.05859375,100,CROSS,1
2026-07-28 09:12:32.829472,1193.194400000266,45361.66796875,31184.15234375,28818.419921875,40061.19140625,39677.671875,100,CROSS,1
2026-07-28 09:12:32.829472,1195.1943999997638,45362.0,31187.5859375,28813.078125,40059.85546875,39679.0078125,100,CROSS,1
2026-07-28 09:12:32.829472,1197.1944000001713,45372.44140625,31198.408203125,28817.083984375,40068.203125,39689.546875,100,CROSS,1
2026-07-28 09:12:32.829472,1199.194400000124,45384.125,31209.853515625,28827.3359375,40079.8828125,39701.1796875,100,CROSS,1
2026-07-28 09:12:32.829472,1201.1944000000767,45381.59765625,31208.56640625,28824.142578125,40077.26171875,39701.609375,100,CROSS,1
2026-07-28 09:12:32.829472,1203.1944000000294,45388.84765625,31213.859375,28833.296875,40085.55859375,39709.62109375,100,CROSS,1
2026-07-28 09:12:32.829472,1205.1943999999821,45376.2578125,31198.6484375,28825.953125,40074.2578125,39694.12109375,100,CROSS,1
2026-07-28 09:12:32.829472,1207.1943999999348,45357.8984375,31181.529296875,28810.169921875,40055.7578125,39673.140625,100,CROSS,1
2026-07-28 09:12:32.829472,1209.1943999998875,45357.66015625,31181.86328125,28808.64453125,40054.70703125,39672.33203125,100,CROSS,1
2026-07-28 09:12:32.829472,1211.194400000295,45365.95703125,31190.017578125,28814.080078125,40060.8125,39682.10546875,100,CROSS,1
2026-07-28 09:12:32.845724,1213.194399999793,45383.36328125,31209.28125,28824.474609375,40075.49609375,39699.94140625,100,CROSS,1
2026-07-28 09:12:32.862722,1215.1944000002004,45390.609375,31215.71875,28830.0078125,40081.7890625,39706.7109375,100,CROSS,1
2026-07-28 09:12:32.862722,1217.194400000153,45395.6640625,31220.05859375,28837.541015625,40086.60546875,39713.81640625,100,CROSS,1
2026-07-28 09:12:32.862722,1219.1944000001058,45387.3671875,31212.71484375,28831.771484375,40080.12109375,39708.80859375,100,CROSS,1
2026-07-28 09:12:32.862722,1221.1944000000585,45378.1640625,31203.75,28828.2890625,40076.0703125,39701.65625,100,CROSS,1
2026-07-28 09:12:32.862722,1223.1944000000112,45368.8671875,31193.44921875,28824.380859375,40069.96484375,39691.0234375,100,CROSS,1
2026-07-28 09:12:32.862722,1225.194399999964,45357.328125,31185.392578125,28817.560546875,40061.3828125,39679.38671875,100,CROSS,1
2026-07-28 09:12:32.862722,1227.1943999999166,45356.46875,31186.298828125,28814.12890625,40060.3359375,39682.34375,100,CROSS,1
2026-07-28 09:12:32.862722,1229.194400000324,45362.4296875,31191.828125,28812.6015625,40063.71875,39689.35546875,100,CROSS,1
2026-07-28 09:12:32.862722,1231.194399999822,45376.87890625,31205.419921875,28822.42578125,40074.734375,39702.5625,100,CROSS,1
2026-07-28 09:12:32.862722,1233.1944000002295,45378.0234375,31206.0390625,28824.71484375,40078.0703125,39705.56640625,100,CROSS,1
2026-07-28 09:12:32.862722,1235.1944000001822,45375.3046875,31204.798828125,28823.140625,40076.9296875,39706.140625,100,CROSS,1
2026-07-28 09:12:32.862722,1237.194400000135,45371.0625,31198.171875,28821.185546875,40073.63671875,39700.796875,100,CROSS,1
2026-07-28 09:12:32.896652,1239.1944000000876,45363.48046875,31187.490234375,28816.98828125,40067.484375,39689.06640625,100,CROSS,1
2026-07-28 09:12:32.896652,1241.1944000000403,45368.58203125,31189.396484375,28826.19140625,40071.96875,39691.59375,100,CROSS,1
2026-07-28 09:12:32.896652,1243.194399999993,45348.93359375,31172.0390625,28806.974609375,40053.515625,39672.90234375,100,CROSS,1
2026-07-28 09:12:32.896652,1245.1943999999457,45351.22265625,31178.4296875,28802.158203125,40054.75390625,39676.3359375,100,CROSS,1
2026-07-28 09:12:32.930013,1247.1943999998985,45372.68359375,31198.93359375,28815.748046875,40073.2578125,39697.4609375,100,CROSS,1
2026-07-28 09:12:32.930013,1249.1943999998512,45382.7890625,31208.994140625,28825.19140625,40082.4609375,39707.6640625,100,CROSS,1
2026-07-28 09:12:32.930013,1251.1944000002586,45388.89453125,31214.62109375,28835.15625,40087.1796875,39713.81640625,100,CROSS,1
2026-07-28 09:12:32.930013,1253.1943999997566,45376.734375,31202.12890625,28822.7109375,40074.97265625,39700.3203125,100,CROSS,1
2026-07-28 09:12:32.946380,1255.194400000164,45376.1640625,31197.93359375,28820.8984375,40074.06640625,39695.02734375,100,CROSS,1
2026-07-28 09:12:32.946380,1257.1944000001167,45372.4921875,31192.87890625,28823.044921875,40073.06640625,39689.49609375,100,CROSS,1
2026-07-28 09:12:32.946380,1259.1944000000694,45367.8671875,31189.111328125,28825.23828125,40068.10546875,39685.82421875,100,CROSS,1
2026-07-28 09:12:32.946380,1261.1944000000221,45366.0078125,31192.162109375,28819.755859375,40064.76953125,39685.109375,100,CROSS,1
2026-07-28 09:12:32.946380,1263.1943999999748,45369.05859375,31200.03125,28815.892578125,40065.24609375,39690.1640625,100,CROSS,1
2026-07-28 09:12:32.946380,1265.1943999999276,45390.18359375,31220.201171875,28833.392578125,40085.890625,39712.86328125,100,CROSS,1
2026-07-28 09:12:32.946380,1267.1943999998803,45396.046875,31225.494140625,28841.78515625,40092.140625,39720.34765625,100,CROSS,1
2026-07-28 09:12:32.961859,1269.1944000002877,45381.45703125,31212.857421875,28828.767578125,40078.21484375,39707.6640625,100,CROSS,1
2026-07-28 09:12:32.961859,1271.1943999997857,45377.44921875,31205.037109375,28828.1953125,40075.6875,39701.94140625,100,CROSS,1
2026-07-28 09:12:32.961859,1273.1944000001931,45363.57421875,31190.875,28816.2734375,40062.71875,39683.6328125,100,CROSS,1
2026-07-28 09:12:32.961859,1275.1944000001458,45361.80859375,31189.205078125,28814.556640625,40059.953125,39678.53125,100,CROSS,1
2026-07-28 09:12:32.961859,1277.1944000000985,45358.6640625,31188.73046875,28809.884765625,40056.94921875,39678.48046875,100,CROSS,1
2026-07-28 09:12:32.961859,1279.1944000000512,45369.8203125,31202.3203125,28817.083984375,40068.34375,39692.8828125,100,CROSS,1
2026-07-28 09:12:32.961859,1281.194400000004,45384.41015625,31216.767578125,28828.52734375,40083.36328125,39709.953125,100,CROSS,1
2026-07-28 09:12:32.961859,1283.1943999999567,45379.8359375,31213.287109375,28826.90625,40082.171875,39709.3359375,100,CROSS,1
2026-07-28 09:12:32.961859,1285.1943999999094,45381.98046875,31216.43359375,28830.0078125,40085.69921875,39714.484375,100,CROSS,1
2026-07-28 09:12:32.961859,1287.1944000003168,45374.68359375,31208.517578125,28825.048828125,40079.98046875,39705.13671875,100,CROSS,1
2026-07-28 09:12:32.961859,1289.1943999998148,45368.390625,31198.408203125,28821.51953125,40074.58984375,39695.31640625,100,CROSS,1
2026-07-28 09:12:32.961859,1291.1944000002222,45366.76953125,31192.92578125,28823.568359375,40072.30078125,39689.59375,100,CROSS,1
2026-07-28 09:12:32.961859,1293.194400000175,45355.421875,31182.9609375,28811.982421875,40059.76171875,39678.0078125,100,CROSS,1
2026-07-28 09:12:32.961859,1295.1944000001276,45367.0546875,31197.93359375,28817.703125,40069.39453125,39691.0234375,100,CROSS,1
2026-07-28 09:12:32.961859,1297.1944000000803,45378.40234375,31208.8046875,28825.66796875,40079.93359375,39703.37109375,100,CROSS,1
2026-07-28 09:12:32.961859,1299.194400000033,45385.26953125,31212.76171875,28829.720703125,40085.2265625,39710.859375,100,CROSS,1
2026-07-28 09:12:32.978523,1301.1943999999858,45399.09765625,31226.591796875,28845.552734375,40098.625,39725.9765625,100,CROSS,1
2026-07-28 09:12:32.978523,1303.1943999999385,45387.84375,31216.2421875,28838.54296875,40090.8984375,39716.390625,100,CROSS,1
2026-07-28 09:12:32.978523,1305.1943999998912,45365.625,31192.734375,28819.373046875,40072.20703125,39693.55078125,100,CROSS,1
2026-07-28 09:12:32.978523,1307.1943999998439,45358.51953125,31185.7734375,28814.365234375,40066.19921875,39684.87109375,100,CROSS,1
2026-07-28 09:12:32.978523,1309.1944000002513,45359.1875,31187.107421875,28816.41796875,40066.0546875,39683.87109375,100,CROSS,1
2026-07-28 09:12:32.978523,1311.194400000204,45362.28515625,31192.591796875,28818.275390625,40069.15625,39690.1171875,100,CROSS,1
2026-07-28 09:12:32.978523,1313.1944000001567,45369.10546875,31203.46484375,28819.70703125,40075.59375,39699.12890625,100,CROSS,1
2026-07-28 09:12:32.978523,1315.1944000001095,45383.41015625,31215.95703125,28829.81640625,40086.94140625,39712.57421875,100,CROSS,1
2026-07-28 09:12:32.978523,1317.1944000000622,45384.4609375,31217.720703125,28832.15234375,40089.8984375,39716.9140625,100,CROSS,1
2026-07-28 09:12:32.978523,1319.1944000000149,45387.796875,31222.298828125,28839.01953125,40094.80859375,39722.78125,100,CROSS,1
2026-07-28 09:12:32.978523,1321.1943999999676,45390.84765625,31222.060546875,28846.88671875,40098.09765625,39725.59375,100,CROSS,1
2026-07-28 09:12:32.978523,1323.1943999999203,45377.0703125,31205.1328125,28835.919921875,40085.46484375,39707.80859375,100,CROSS,1
2026-07-28 09:12:32.994858,1325.194399999873,45375.3984375,31203.08203125,28835.203125,40083.65234375,39704.27734375,100,CROSS,1
2026-07-28 09:12:32.994858,1327.1944000002804,45372.39453125,31200.9375,28832.677734375,40078.8359375,39699.94140625,100,CROSS,1
2026-07-28 09:12:32.994858,1329.1943999997784,45371.5859375,31203.177734375,28825.572265625,40076.26171875,39698.078125,100,CROSS,1
2026-07-28 09:12:32.994858,1331.1944000001859,45376.78125,31208.66015625,28823.09375,40079.21484375,39702.9921875,100,CROSS,1
2026-07-28 09:12:32.994858,1333.1944000001386,45374.828125,31206.849609375,28819.087890625,40077.64453125,39702.0859375,100,CROSS,1
2026-07-28 09:12:32.994858,1335.1944000000913,45375.734375,31206.75390625,28817.369140625,40077.9765625,39703.46875,100,CROSS,1
2026-07-28 09:12:32.994858,1337.194400000044,45376.734375,31205.0859375,28821.04296875,40079.7890625,39704.7109375,100,CROSS,1
2026-07-28 09:12:32.994858,1339.1943999999967,45365.91015625,31192.92578125,28817.322265625,40072.11328125,39692.12109375,100,CROSS,1
2026-07-28 09:12:32.994858,1341.1943999999494,45369.15234375,31192.92578125,28825.4296875,40075.59375,39691.8828125,100,CROSS,1
2026-07-28 09:12:32.994858,1343.194399999902,45361.28515625,31186.822265625,28819.515625,40068.8203125,39684.5390625,100,CROSS,1
2026-07-28 09:12:32.994858,1345.1944000003095,45363.8125,31193.546875,28817.466796875,40071.5859375,39689.92578125,100,CROSS,1
2026-07-28 09:12:32.994858,1347.1943999998075,45377.83203125,31209.662109375,28824.5703125,40083.79296875,39703.32421875,100,CROSS,1
2026-07-28 09:12:32.994858,1349.194400000215,45385.796875,31216.529296875,28830.76953125,40090.8984375,39712.1484375,100,CROSS,1
2026-07-28 09:12:32.994858,1351.1944000001677,45383.45703125,31214.62109375,28831.580078125,40090.27734375,39713.76953125,100,CROSS,1
2026-07-28 09:12:32.994858,1353.1944000001204,45377.2109375,31208.708984375,28827.955078125,40085.17578125,39706.99609375,100,CROSS,1
2026-07-28 09:12:33.011509,1355.194400000073,45372.6328125,31202.701171875,28828.861328125,40083.17578125,39698.890625,100,CROSS,1
2026-07-28 09:12:33.011509,1357.1944000000258,45361.28515625,31188.443359375,28819.9921875,40071.77734375,39684.5859375,100,CROSS,1
2026-07-28 09:12:33.011509,1359.1943999999785,45356.08984375,31182.9609375,28817.322265625,40066.53125,39679.72265625,100,CROSS,1
2026-07-28 09:12:33.011509,1361.1943999999312,45354.65625,31185.392578125,28811.314453125,40062.48046875,39678.33984375,100,CROSS,1
2026-07-28 09:12:33.011509,1363.194399999884,45370.7734375,31204.083984375,28818.228515625,40075.2578125,39693.265625,100,CROSS,1
2026-07-28 09:12:33.011509,1365.1943999998366,45385.69921875,31217.388671875,28830.76953125,40088.9453125,39709.28515625,100,CROSS,1
2026-07-28 09:12:33.011509,1367.194400000244,45380.9296875,31214.14453125,28828.48046875,40085.69921875,39709.0,100,CROSS,1
2026-07-28 09:12:33.011509,1369.1944000001968,45386.22265625,31219.486328125,28835.728515625,40091.8046875,39716.8671875,100,CROSS,1
2026-07-28 09:12:33.011509,1371.1944000001495,45379.1171875,31209.138671875,28834.01171875,40087.51171875,39708.80859375,100,CROSS,1
2026-07-28 09:12:33.011509,1373.1944000001022,45368.10546875,31195.9296875,28828.384765625,40078.30859375,39694.6484375,100,CROSS,1
2026-07-28 09:12:33.011509,1375.1944000000549,45357.375,31186.392578125,28819.8984375,40068.6796875,39682.58203125,100,CROSS,1
2026-07-28 09:12:33.011509,1377.1944000000076,45356.08984375,31187.251953125,28813.26953125,40066.0546875,39681.62890625,100,CROSS,1
2026-07-28 09:12:33.011509,1379.1943999999603,45372.68359375,31206.658203125,28823.90234375,40080.98046875,39700.65625,100,CROSS,1
2026-07-28 09:12:33.028580,1381.194399999913,45369.8671875,31204.369140625,28816.41796875,40076.49609375,39697.69921875,100,CROSS,1
2026-07-28 09:12:33.028580,1383.1943999998657,45377.40234375,31209.51953125,28823.330078125,40084.65234375,39706.85546875,100,CROSS,1
2026-07-28 09:12:33.028580,1385.1944000002732,45377.44921875,31211.998046875,28823.759765625,40087.41796875,39710.52734375,100,CROSS,1
2026-07-28 09:12:33.028580,1387.1943999997711,45386.9375,31218.0078125,28835.251953125,40097.19140625,39717.8203125,100,CROSS,1
2026-07-28 09:12:33.028580,1389.1944000001786,45376.92578125,31203.55859375,28834.060546875,40087.37109375,39704.27734375,100,CROSS,1
2026-07-28 09:12:33.028580,1391.1944000001313,45362.28515625,31189.0625,28824.76171875,40072.20703125,39686.828125,100,CROSS,1
2026-07-28 09:12:33.028580,1393.194400000084,45355.84765625,31182.9609375,28815.4140625,40062.95703125,39679.24609375,100,CROSS,1
2026-07-28 09:12:33.028580,1395.1944000000367,45358.61328125,31189.4921875,28811.83984375,40062.71875,39682.7734375,100,CROSS,1
2026-07-28 09:12:33.028580,1397.1943999999894,45376.1640625,31207.70703125,28821.51953125,40076.0703125,39699.08203125,100,CROSS,1
2026-07-28 09:12:33.028580,1399.194399999942,45395.046875,31223.634765625,28839.734375,40093.85546875,39715.578125,100,CROSS,1
2026-07-28 09:12:33.028580,1401.1943999998948,45381.3125,31212.380859375,28825.572265625,40080.21875,39703.0390625,100,CROSS,1
2026-07-28 09:12:33.028580,1403.1944000003023,45382.3125,31211.283203125,28823.330078125,40078.9765625,39699.75,100,CROSS,1
2026-07-28 09:12:33.028580,1405.1943999998002,45385.12890625,31207.0390625,28828.814453125,40081.125,39697.12890625,100,CROSS,1
2026-07-28 09:12:33.028580,1407.1944000002077,45375.92578125,31195.16796875,28824.09375,40072.73046875,39684.5859375,100,CROSS,1
2026-07-28 09:12:33.028580,1409.1944000001604,45372.87109375,31194.78515625,28825.333984375,40072.828125,39684.87109375,100,CROSS,1
2026-07-28 09:12:33.045802,1411.194400000113,45375.87890625,31201.794921875,28829.052734375,40077.35546875,39692.0234375,100,CROSS,1
2026-07-28 09:12:33.045802,1413.1944000000658,45386.51171875,31215.52734375,28834.775390625,40086.1796875,39705.47265625,100,CROSS,1
2026-07-28 09:12:33.045802,1415.1944000000185,45393.04296875,31222.537109375,28840.591796875,40093.234375,39714.0546875,100,CROSS,1
2026-07-28 09:12:33.045802,1417.1943999999712,45386.84375,31218.72265625,28836.30078125,40090.8046875,39711.00390625,100,CROSS,1
2026-07-28 09:12:33.045802,1419.194399999924,45385.12890625,31219.294921875,28833.439453125,40087.84765625,39711.14453125,100,CROSS,1
2026-07-28 09:12:33.062182,1421.1943999998766,45372.34765625,31204.369140625,28823.236328125,40077.35546875,39696.79296875,100,CROSS,1
2026-07-28 09:12:33.062182,1423.1943999998293,45366.0078125,31194.595703125,28820.087890625,40071.20703125,39686.58984375,100,CROSS,1
2026-07-28 09:12:33.062182,1425.1944000002368,45359.85546875,31187.44140625,28815.796875,40063.81640625,39679.24609375,100,CROSS,1
2026-07-28 09:12:33.062182,1427.1944000001895,45359.04296875,31187.87109375,28812.31640625,40061.66796875,39679.9609375,100,CROSS,1
2026-07-28 09:12:33.062182,1429.1944000001422,45373.73046875,31205.0859375,28821.56640625,40074.6875,39695.171875,100,CROSS,1
2026-07-28 09:12:33.062182,1431.194400000095,45379.35546875,31210.998046875,28824.857421875,40080.21875,39701.75390625,100,CROSS,1
2026-07-28 09:12:33.062182,1433.1944000000476,45375.58984375,31208.470703125,28820.61328125,40078.78515625,39699.84375,100,CROSS,1
2026-07-28 09:12:33.078630,1435.1944000000003,45378.83203125,31212.427734375,28823.951171875,40082.4609375,39704.99609375,100,CROSS,1
2026-07-28 09:12:33.078630,1437.194399999953,45382.83984375,31214.001953125,28832.10546875,40088.32421875,39708.33203125,100,CROSS,1
2026-07-28 09:12:33.078630,1439.1943999999057,45379.546875,31206.087890625,28835.728515625,40086.2265625,39701.89453125,100,CROSS,1
2026-07-28 09:12:33.078630,1441.1943999998584,45368.8671875,31194.35546875,28831.484375,40078.8828125,39690.40234375,100,CROSS,1
2026-07-28 09:12:33.078630,1443.194400000266,45360.90234375,31190.064453125,28823.951171875,40072.68359375,39684.921875,100,CROSS,1
2026-07-28 09:12:33.078630,1445.1943999997638,45363.23828125,31195.453125,28819.611328125,40072.3515625,39687.92578125,100,CROSS,1
2026-07-28 09:12:33.078630,1447.1944000001713,45377.40234375,31211.236328125,28827.8125,40085.2265625,39703.0859375,100,CROSS,1
2026-07-28 09:12:33.078630,1449.194400000124,45389.37109375,31220.15234375,28837.68359375,40096.52734375,39714.62890625,100,CROSS,1
2026-07-28 09:12:33.095297,1451.1944000000767,45377.92578125,31209.900390625,28827.57421875,40087.37109375,39707.140625,100,CROSS,1
2026-07-28 09:12:33.095297,1453.1944000000294,45375.49609375,31210.140625,28825.90625,40086.84765625,39706.56640625,100,CROSS,1
2026-07-28 09:12:33.095297,1455.1943999999821,45373.30078125,31207.802734375,28828.48046875,40085.94140625,39703.66015625,100,CROSS,1
2026-07-28 09:12:33.095297,1457.1943999999348,45368.8671875,31199.6484375,28828.814453125,40082.26953125,39697.31640625,100,CROSS,1
2026-07-28 09:12:33.095297,1459.1943999998875,45371.30078125,31203.177734375,28833.91796875,40084.03125,39701.32421875,100,CROSS,1
2026-07-28 09:12:33.095297,1461.194400000295,45367.29296875,31202.65234375,28826.09765625,40078.8359375,39698.69921875,100,CROSS,1
2026-07-28 09:12:33.095297,1463.194399999793,45379.21484375,31216.052734375,28829.244140625,40086.796875,39709.859375,100,CROSS,1
2026-07-28 09:12:33.095297,1465.1944000002004,45385.984375,31219.8671875,28832.486328125,40092.90234375,39715.24609375,100,CROSS,1
2026-07-28 09:12:33.095297,1467.194400000153,45382.88671875,31216.671875,28831.484375,40091.421875,39714.29296875,100,CROSS,1
2026-07-28 09:12:33.095297,1469.1944000001058,45391.46875,31225.111328125,28840.49609375,40099.81640625,39725.0234375,100,CROSS,1
2026-07-28 09:12:33.095297,1471.1944000000585,45388.2734375,31215.814453125,28839.54296875,40096.3828125,39717.34375,100,CROSS,1
2026-07-28 09:12:33.095297,1473.1944000000112,45379.0703125,31203.130859375,28833.345703125,40086.75,39702.27734375,100,CROSS,1
2026-07-28 09:12:33.111042,1475.194399999964,45370.91796875,31194.78515625,28827.146484375,40078.8359375,39691.59375,100,CROSS,1
2026-07-28 09:12:33.111042,1477.1943999999166,45382.88671875,31208.08984375,28839.162109375,40090.9453125,39704.8515625,100,CROSS,1
2026-07-28 09:12:33.111042,1479.194400000324,45373.96875,31202.224609375,28826.09765625,40080.7421875,39698.51171875,100,CROSS,1
2026-07-28 09:12:33.111042,1481.194399999822,45389.37109375,31216.33984375,28835.490234375,40093.90234375,39711.765625,100,CROSS,1
2026-07-28 09:12:33.111042,1483.1944000002295,45396.953125,31223.34765625,28844.025390625,40101.390625,39720.82421875,100,CROSS,1
2026-07-28 09:12:33.127980,1485.1944000001822,45393.375,31220.724609375,28841.498046875,40099.1484375,39719.0625,100,CROSS,1
2026-07-28 09:12:33.127980,1487.194400000135,45393.7109375,31220.248046875,28842.166015625,40099.81640625,39717.10546875,100,CROSS,1
2026-07-28 09:12:33.127980,1489.1944000000876,45385.22265625,31209.04296875,28838.732421875,40093.6171875,39705.328125,100,CROSS,1
2026-07-28 09:12:33.127980,1491.1944000000403,45380.3125,31203.94140625,28837.873046875,40087.98828125,39698.55859375,100,CROSS,1
2026-07-28 09:12:33.127980,1493.194399999993,45374.4453125,31200.173828125,28833.345703125,40080.6953125,39691.59375,100,CROSS,1
2026-07-28 09:12:33.127980,1495.1943999999457,45378.1171875,31205.466796875,28829.005859375,40079.8828125,39693.07421875,100,CROSS,1
2026-07-28 09:12:33.127980,1497.1943999998985,45401.86328125,31228.021484375,28846.552734375,40099.1953125,39714.76953125,100,CROSS,1
2026-07-28 09:12:33.127980,1499.1943999998512,45407.921875,31230.73828125,28853.1328125,40103.96484375,39721.73046875,100,CROSS,1
2026-07-28 09:12:33.127980,1501.1944000002586,45396.5234375,31219.103515625,28843.453125,40093.76171875,39712.95703125,100,CROSS,1
2026-07-28 09:12:33.144845,1503.1943999997566,45388.703125,31210.94921875,28834.203125,40086.2734375,39705.328125,100,CROSS,1
2026-07-28 09:12:33.144845,1505.194400000164,45384.125,31205.228515625,28832.677734375,40084.078125,39698.65234375,100,CROSS,1
2026-07-28 09:12:33.144845,1507.1944000001167,45378.83203125,31198.45703125,28832.486328125,40080.265625,39691.0234375,100,CROSS,1
2026-07-28 09:12:33.144845,1509.1944000000694,45369.53515625,31190.779296875,28825.857421875,40071.63671875,39682.6796875,100,CROSS,1
2026-07-28 09:12:33.144845,1511.1944000000221,45372.5390625,31196.453125,28824.904296875,40074.734375,39688.2109375,100,CROSS,1
2026-07-28 09:12:33.144845,1513.1943999999748,45383.26953125,31208.423828125,28828.337890625,40082.41015625,39699.2734375,100,CROSS,1
2026-07-28 09:12:33.144845,1515.1943999999276,45405.44140625,31228.546875,28847.125,40100.38671875,39720.25390625,100,CROSS,1
2026-07-28 09:12:33.144845,1517.1943999998803,45415.453125,31237.748046875,28860.810546875,40111.0234375,39733.3203125,100,CROSS,1
2026-07-28 09:12:33.144845,1519.1944000002877,45405.53515625,31227.6875,28851.177734375,40103.05859375,39725.26171875,100,CROSS,1
2026-07-28 09:12:33.161779,1521.1943999997857,45402.33984375,31223.82421875,28853.275390625,40103.15234375,39721.4921875,100,CROSS,1
2026-07-28 09:12:33.161779,1523.1944000001931,45385.984375,31205.705078125,28842.880859375,40088.84765625,39703.66015625,100,CROSS,1
2026-07-28 09:12:33.161779,1525.1944000001458,45370.10546875,31192.591796875,28827.955078125,40073.828125,39685.82421875,100,CROSS,1
2026-07-28 09:12:33.161779,1527.1944000000985,45375.92578125,31202.224609375,28832.34375,40079.8828125,39692.21484375,100,CROSS,1
2026-07-28 09:12:33.161779,1529.1944000000512,45377.0703125,31208.232421875,28829.38671875,40081.41015625,39696.6484375,100,CROSS,1
2026-07-28 09:12:33.161779,1531.194400000004,45384.22265625,31215.00390625,28831.24609375,40087.37109375,39707.37890625,100,CROSS,1
2026-07-28 09:12:33.161779,1533.1943999999567,45392.9453125,31223.25390625,28841.068359375,40098.00390625,39718.05859375,100,CROSS,1
2026-07-28 09:12:33.161779,1535.1943999999094,45396.33203125,31227.591796875,28842.5,40099.0546875,39722.3515625,100,CROSS,1
2026-07-28 09:12:33.161779,1537.1944000003168,45404.10546875,31233.7421875,28852.990234375,40106.25390625,39728.7890625,100,CROSS,1
2026-07-28 09:12:33.161779,1539.1943999998148,45384.9375,31212.095703125,28840.544921875,40087.609375,39705.28125,100,CROSS,1
2026-07-28 09:12:33.178928,1541.1944000002222,45377.640625,31204.322265625,28835.6328125,40081.93359375,39696.125,100,CROSS,1
2026-07-28 09:12:33.178928,1543.194400000175,45376.11328125,31204.03515625,28833.48828125,40079.8359375,39696.26953125,100,CROSS,1
2026-07-28 09:12:33.178928,1545.1944000001276,45388.98828125,31217.482421875,28841.642578125,40090.8046875,39710.90625,100,CROSS,1
2026-07-28 09:12:33.178928,1547.1944000000803,45405.203125,31236.126953125,28854.32421875,40107.58984375,39728.7890625,100,CROSS,1
2026-07-28 09:12:33.178928,1549.194400000033,45399.8125,31230.9765625,28849.556640625,40103.15234375,39724.2109375,100,CROSS,1
2026-07-28 09:12:33.178928,1551.1943999999858,45400.33984375,31232.07421875,28847.79296875,40104.34765625,39725.30859375,100,CROSS,1
2026-07-28 09:12:33.178928,1553.1943999999385,45403.296875,31230.64453125,28849.65234375,40107.30078125,39727.73828125,100,CROSS,1
2026-07-28 09:12:33.195281,1555.1943999998912,45388.75,31214.09765625,28840.6875,40096.05078125,39710.0,100,CROSS,1
2026-07-28 09:12:33.195281,1557.1943999998439,45387.08203125,31210.330078125,28843.40625,40095.28515625,39703.66015625,100,CROSS,1
2026-07-28 09:12:33.195281,1559.1944000002513,45376.11328125,31200.9375,28832.15234375,40084.26953125,39692.59765625,100,CROSS,1
2026-07-28 09:12:33.195281,1561.194400000204,45384.890625,31213.001953125,28839.447265625,40091.234375,39704.8515625,100,CROSS,1
2026-07-28 09:12:33.195281,1563.1944000001567,45400.81640625,31230.119140625,28849.365234375,40103.58203125,39720.20703125,100,CROSS,1
2026-07-28 09:12:33.195281,1565.1944000001095,45407.34765625,31234.029296875,28855.18359375,40110.2578125,39727.8828125,100,CROSS,1
2026-07-28 09:12:33.195281,1567.1944000000622,45404.05859375,31233.314453125,28854.373046875,40108.734375,39728.55078125,100,CROSS,1
2026-07-28 09:12:33.195281,1569.1944000000149,45397.66796875,31229.1640625,28846.314453125,40102.8203125,39722.97265625,100,CROSS,1
2026-07-28 09:12:33.195281,1571.1943999999676,45390.0859375,31218.865234375,28840.974609375,40095.3828125,39712.57421875,100,CROSS,1
2026-07-28 09:12:33.195281,1573.1943999999203,45383.5546875,31208.66015625,28839.78125,40088.23046875,39699.4140625,100,CROSS,1
2026-07-28 09:12:33.211280,1575.194399999873,45371.01171875,31197.93359375,28831.0078125,40076.40234375,39686.11328125,100,CROSS,1
2026-07-28 09:12:33.211280,1577.1944000002804,45364.8125,31195.69140625,28823.236328125,40071.87109375,39683.5859375,100,CROSS,1
2026-07-28 09:12:33.211280,1579.1943999997784,45373.4453125,31208.232421875,28824.71484375,40079.7890625,39693.64453125,100,CROSS,1
2026-07-28 09:12:33.211280,1581.1944000001859,45384.36328125,31218.626953125,28829.1484375,40088.1796875,39705.328125,100,CROSS,1
2026-07-28 09:12:33.211280,1583.1944000001386,45382.36328125,31215.71875,28825.953125,40086.1328125,39703.37109375,100,CROSS,1
2026-07-28 09:12:33.211280,1585.1944000000913,45393.61328125,31227.400390625,28836.587890625,40098.38671875,39716.8671875,100,CROSS,1
2026-07-28 09:12:33.211280,1587.194400000044,45401.625,31232.408203125,28848.794921875,40107.77734375,39726.453125,100,CROSS,1
2026-07-28 09:12:33.211280,1589.1943999999967,45383.125,31210.712890625,28836.82421875,40092.28125,39705.42578125,100,CROSS,1
2026-07-28 09:12:33.228039,1591.1943999999494,45371.6796875,31198.791015625,28828.48046875,40080.93359375,39688.78125,100,CROSS,1
2026-07-28 09:12:33.228039,1593.194399999902,45370.6796875,31199.267578125,28826.763671875,40079.50390625,39689.2578125,100,CROSS,1
2026-07-28 09:12:33.228039,1595.1944000003095,45381.93359375,31212.427734375,28834.6328125,40089.9921875,39701.515625,100,CROSS,1
2026-07-28 09:12:33.228039,1597.1943999998075,45393.04296875,31224.205078125,28839.162109375,40099.0546875,39712.91015625,100,CROSS,1
2026-07-28 09:12:33.228039,1599.194400000215,45398.62109375,31227.400390625,28842.357421875,40101.578125,39718.82421875,100,CROSS,1
2026-07-28 09:12:33.228039,1601.1944000001677,45395.234375,31224.111328125,28839.97265625,40098.1953125,39718.25,100,CROSS,1
2026-07-28 09:12:33.228039,1603.1944000001204,45395.5234375,31225.63671875,28842.69140625,40100.1484375,39720.25390625,100,CROSS,1
2026-07-28 09:12:33.244752,1605.194400000073,45395.234375,31223.109375,28847.267578125,40101.19921875,39717.8203125,100,CROSS,1
2026-07-28 09:12:33.244752,1607.1944000000258,45386.2734375,31213.23828125,28842.642578125,40092.08984375,39707.37890625,100,CROSS,1
2026-07-28 09:12:33.244752,1609.1943999999785,45386.60546875,31212.76171875,28843.453125,40091.47265625,39706.04296875,100,CROSS,1
2026-07-28 09:12:33.244752,1611.1943999999312,45386.3203125,31214.8125,28840.259765625,40090.0390625,39707.47265625,100,CROSS,1
2026-07-28 09:12:33.244752,1613.194399999884,45399.2421875,31233.02734375,28848.74609375,40101.34375,39724.1640625,100,CROSS,1
2026-07-28 09:12:33.244752,1615.1943999998366,45404.8203125,31239.560546875,28852.2265625,40108.63671875,39730.83984375,100,CROSS,1
2026-07-28 09:12:33.244752,1617.194400000244,45390.0859375,31228.927734375,28837.73046875,40095.90625,39719.87109375,100,CROSS,1
2026-07-28 09:12:33.244752,1619.1944000001968,45397.90625,31240.37109375,28844.55078125,40105.0625,39730.36328125,100,CROSS,1
2026-07-28 09:12:33.244752,1621.1944000001495,45394.140625,31234.505859375,28846.076171875,40103.15234375,39727.8359375,100,CROSS,1
2026-07-28 09:12:33.244752,1623.1944000001022,45393.51953125,31230.73828125,28851.2265625,40105.5390625,39725.26171875,100,CROSS,1
2026-07-28 09:12:33.261488,1625.1944000000549,45388.41796875,31222.537109375,28851.560546875,40101.24609375,39718.296875,100,CROSS,1
2026-07-28 09:12:33.261488,1627.1944000000076,45372.15625,31210.94921875,28835.966796875,40085.60546875,39702.9921875,100,CROSS,1
2026-07-28 09:12:33.261488,1629.1943999999603,45385.17578125,31227.2109375,28842.78515625,40099.2421875,39718.109375,100,CROSS,1
2026-07-28 09:12:33.278498,1631.194399999913,45395.5234375,31236.26953125,28848.556640625,40108.015625,39728.7890625,100,CROSS,1
2026-07-28 09:12:33.278498,1633.1943999998657,45389.94140625,31231.310546875,28843.501953125,40103.19921875,39725.9765625,100,CROSS,1
2026-07-28 09:12:33.278498,1635.1944000002732,45393.328125,31234.6484375,28844.978515625,40105.30078125,39728.7890625,100,CROSS,1
2026-07-28 09:12:33.278498,1637.1943999997711,45385.890625,31221.7734375,28838.58984375,40096.71484375,39718.25,100,CROSS,1
2026-07-28 09:12:33.278498,1639.1944000001786,45380.98046875,31211.5703125,28835.30078125,40091.328125,39708.33203125,100,CROSS,1
2026-07-28 09:12:33.294825,1641.1944000001313,45386.51171875,31214.431640625,28845.6953125,40095.62109375,39709.5234375,100,CROSS,1
2026-07-28 09:12:33.294825,1643.194400000084,45377.83203125,31205.65625,28837.73046875,40084.74609375,39698.51171875,100,CROSS,1
2026-07-28 09:12:33.294825,1645.1944000000367,45383.88671875,31214.193359375,28837.873046875,40088.609375,39704.13671875,100,CROSS,1
2026-07-28 09:12:33.311586,1647.1943999999894,45389.5625,31218.0078125,28837.015625,40092.04296875,39707.5703125,100,CROSS,1
2026-07-28 09:12:33.328208,1649.194399999942,45388.89453125,31214.669921875,28834.822265625,40091.66015625,39705.7578125,100,CROSS,1
2026-07-28 09:12:33.328208,1651.1943999998948,45385.17578125,31210.615234375,28828.00390625,40086.46484375,39701.65625,100,CROSS,1
2026-07-28 09:12:33.328208,1653.1944000003023,45388.41796875,31210.85546875,28828.814453125,40088.9453125,39702.65625,100,CROSS,1
2026-07-28 09:12:33.328208,1655.1943999998002,45387.796875,31207.0390625,28831.9140625,40090.61328125,39700.2265625,100,CROSS,1
2026-07-28 09:12:33.328208,1657.1944000002077,45380.69140625,31198.93359375,28829.81640625,40084.74609375,39690.26171875,100,CROSS,1
2026-07-28 09:12:33.328208,1659.1944000001604,45372.73046875,31191.447265625,28825.90625,40078.55078125,39681.67578125,100,CROSS,1
2026-07-28 09:12:33.328208,1661.194400000113,45372.921875,31195.8359375,28827.00390625,40078.453125,39686.828125,100,CROSS,1
2026-07-28 09:12:33.328208,1663.1944000000658,45378.0703125,31204.89453125,28827.146484375,40082.36328125,39694.02734375,100,CROSS,1
2026-07-28 09:12:33.328208,1665.1944000000185,45388.37109375,31217.388671875,28834.01171875,40093.234375,39705.66015625,100,CROSS,1
2026-07-28 09:12:33.328208,1667.1943999999712,45384.83984375,31215.43359375,28830.72265625,40089.5625,39704.51953125,100,CROSS,1
2026-07-28 09:12:33.328208,1669.194399999924,45379.9765625,31212.76171875,28826.240234375,40085.2734375,39702.37109375,100,CROSS,1
2026-07-28 09:12:33.328208,1671.1943999998766,45381.359375,31212.953125,28831.67578125,40087.37109375,39702.5625,100,CROSS,1
2026-07-28 09:12:33.328208,1673.1943999998293,45375.2109375,31204.798828125,28831.294921875,40081.7421875,39693.59765625,100,CROSS,1
2026-07-28 09:12:33.328208,1675.1944000002368,45363.859375,31195.8828125,28824.09375,40073.4453125,39684.6796875,100,CROSS,1
2026-07-28 09:12:33.328208,1677.1944000001895,45357.421875,31192.400390625,28814.748046875,40065.67578125,39679.81640625,100,CROSS,1
2026-07-28 09:12:33.344080,1679.1944000001422,45370.87109375,31208.994140625,28821.947265625,40077.40234375,39693.50390625,100,CROSS,1
2026-07-28 09:12:33.344080,1681.194400000095,45378.59375,31218.67578125,28824.951171875,40083.69921875,39703.46875,100,CROSS,1
2026-07-28 09:12:33.344080,1683.1944000000476,45379.30859375,31219.724609375,28827.71875,40086.41796875,39707.71484375,100,CROSS,1
2026-07-28 09:12:33.344080,1685.1944000000003,45388.65625,31228.259765625,28837.873046875,40094.90234375,39719.87109375,100,CROSS,1
2026-07-28 09:12:33.344080,1687.194399999953,45378.40234375,31215.099609375,28830.1015625,40085.3671875,39707.33203125,100,CROSS,1
2026-07-28 09:12:33.344080,1689.1943999999057,45371.25,31204.990234375,28827.861328125,40082.5546875,39699.4140625,100,CROSS,1
2026-07-28 09:12:33.344080,1691.1943999998584,45357.7578125,31190.828125,28818.275390625,40071.109375,39685.68359375,100,CROSS,1
2026-07-28 09:12:33.344080,1693.194400000266,45358.90234375,31193.212890625,28819.611328125,40071.20703125,39687.4453125,100,CROSS,1
2026-07-28 09:12:33.344080,1695.1943999997638,45371.5859375,31207.755859375,28828.91015625,40082.984375,39701.2265625,100,CROSS,1
2026-07-28 09:12:33.344080,1697.1944000001713,45378.1171875,31214.669921875,28828.814453125,40088.70703125,39707.94921875,100,CROSS,1
2026-07-28 09:12:33.344080,1699.194400000124,45377.1640625,31213.4296875,28827.00390625,40089.46875,39709.0,100,CROSS,1
2026-07-28 09:12:33.344080,1701.1944000000767,45377.59375,31215.576171875,28826.572265625,40090.51953125,39712.95703125,100,CROSS,1
2026-07-28 09:12:33.360151,1703.1944000000294,45384.984375,31221.25,28834.39453125,40098.05078125,39719.5390625,100,CROSS,1
2026-07-28 09:12:33.360151,1705.1943999999821,45387.2734375,31218.912109375,28842.404296875,40104.15625,39719.48828125,100,CROSS,1
2026-07-28 09:12:33.360151,1707.1943999999348,45374.5390625,31205.65625,28836.205078125,40093.42578125,39704.9453125,100,CROSS,1
2026-07-28 09:12:33.360151,1709.1943999998875,45370.7734375,31203.845703125,28834.298828125,40091.47265625,39702.46875,100,CROSS,1
2026-07-28 09:12:33.360151,1711.194400000295,45376.92578125,31211.283203125,28838.923828125,40095.5703125,39709.3828125,100,CROSS,1
2026-07-28 09:12:33.360151,1713.194399999793,45375.63671875,31211.140625,28830.435546875,40089.421875,39706.42578125,100,CROSS,1
2026-07-28 09:12:33.360151,1715.1944000002004,45384.078125,31219.67578125,28835.490234375,40096.765625,39714.72265625,100,CROSS,1
2026-07-28 09:12:33.360151,1717.194400000153,45382.88671875,31218.9609375,28835.109375,40095.0,39714.72265625,100,CROSS,1
2026-07-28 09:12:33.360151,1719.1944000001058,45386.2734375,31221.583984375,28838.828125,40098.1953125,39717.8671875,100,CROSS,1
2026-07-28 09:12:33.360151,1721.1944000000585,45379.9296875,31211.76171875,28835.251953125,40092.8046875,39710.3828125,100,CROSS,1
2026-07-28 09:12:33.360151,1723.1944000000112,45377.44921875,31206.75390625,28837.587890625,40088.80078125,39703.0859375,100,CROSS,1
2026-07-28 09:12:33.360151,1725.194399999964,45368.24609375,31197.693359375,28831.390625,40081.6015625,39692.69140625,100,CROSS,1
2026-07-28 09:12:33.360151,1727.1943999999166,45367.19921875,31200.03125,28826.90625,40080.7890625,39692.8359375,100,CROSS,1
2026-07-28 09:12:33.360151,1729.194400000324,45385.890625,31221.48828125,28839.54296875,40097.62109375,39713.2421875,100,CROSS,1
2026-07-28 09:12:33.360151,1731.194399999822,45388.0859375,31222.060546875,28839.06640625,40100.53125,39716.19921875,100,CROSS,1
2026-07-28 09:12:33.360151,1733.1944000002295,45394.5703125,31225.58984375,28845.6953125,40105.48828125,39721.4453125,100,CROSS,1
2026-07-28 09:12:33.375800,1735.1944000001822,45386.4609375,31220.296875,28838.11328125,40097.671875,39715.15234375,100,CROSS,1
2026-07-28 09:12:33.375800,1737.194400000135,45374.828125,31208.470703125,28824.904296875,40086.94140625,39701.65625,100,CROSS,1
2026-07-28 09:12:33.375800,1739.1944000000876,45374.3515625,31204.84765625,28826.859375,40087.2734375,39697.60546875,100,CROSS,1
2026-07-28 09:12:33.375800,1741.1944000000403,45378.0234375,31204.513671875,28832.390625,40090.27734375,39697.078125,100,CROSS,1
2026-07-28 09:12:33.375800,1743.194399999993,45383.79296875,31209.900390625,28839.638671875,40096.23828125,39702.80078125,100,CROSS,1
2026-07-28 09:12:33.375800,1745.1943999999457,45382.07421875,31211.666015625,28834.537109375,40093.5703125,39703.27734375,100,CROSS,1
2026-07-28 09:12:33.393328,1747.1943999998985,45390.0859375,31221.05859375,28839.92578125,40100.484375,39714.24609375,100,CROSS,1
2026-07-28 09:12:33.393328,1749.1943999998512,45390.46875,31220.34375,28839.2578125,40101.24609375,39715.9140625,100,CROSS,1
2026-07-28 09:12:33.393328,1751.1944000002586,45391.18359375,31223.205078125,28839.11328125,40101.67578125,39719.39453125,100,CROSS,1
2026-07-28 09:12:33.393328,1753.1943999997566,45402.9609375,31231.501953125,28852.1796875,40112.78515625,39730.07421875,100,CROSS,1
2026-07-28 09:12:33.393328,1755.194400000164,45388.75,31214.431640625,28845.7421875,40100.578125,39714.86328125,100,CROSS,1
2026-07-28 09:12:33.393328,1757.1944000001167,45376.54296875,31202.509765625,28837.015625,40089.515625,39700.1796875,100,CROSS,1
2026-07-28 09:12:33.393328,1759.1944000000694,45374.20703125,31198.6953125,28834.39453125,40085.3671875,39696.078125,100,CROSS,1
2026-07-28 09:12:33.393328,1761.1944000000221,45379.9765625,31205.896484375,28838.828125,40090.61328125,39703.421875,100,CROSS,1
2026-07-28 09:12:33.393328,1763.1943999999748,45389.84765625,31217.81640625,28844.8359375,40098.52734375,39713.81640625,100,CROSS,1
2026-07-28 09:12:33.393328,1765.1943999999276,45385.984375,31215.95703125,28840.544921875,40095.4765625,39711.2421875,100,CROSS,1
2026-07-28 09:12:33.393328,1767.1943999998803,45384.69921875,31215.765625,28837.587890625,40095.5703125,39711.859375,100,CROSS,1
2026-07-28 09:12:33.393328,1769.1944000002877,45383.31640625,31217.0546875,28833.248046875,40095.0,39712.71875,100,CROSS,1
2026-07-28 09:12:33.393328,1771.1943999997857,45385.890625,31215.2890625,28839.400390625,40097.2890625,39713.578125,100,CROSS,1
2026-07-28 09:12:33.409444,1773.1944000001931,45377.40234375,31204.1796875,28837.970703125,40090.7578125,39702.23046875,100,CROSS,1
2026-07-28 09:12:33.409444,1775.1944000001458,45352.12890625,31181.43359375,28814.939453125,40066.24609375,39676.859375,100,CROSS,1
2026-07-28 09:12:33.409444,1777.1944000000985,45350.9375,31183.771484375,28809.025390625,40064.72265625,39677.05078125,100,CROSS,1
2026-07-28 09:12:33.409444,1779.1944000000512,45366.484375,31202.986328125,28817.322265625,40076.9765625,39692.7890625,100,CROSS,1
2026-07-28 09:12:33.409444,1781.194400000004,45379.9296875,31217.435546875,28827.3359375,40088.32421875,39706.90234375,100,CROSS,1
2026-07-28 09:12:33.409444,1783.1943999999567,45393.375,31230.595703125,28842.26171875,40104.53515625,39722.63671875,100,CROSS,1
2026-07-28 09:12:33.409444,1785.1943999999094,45394.28125,31232.07421875,28843.0234375,40103.53515625,39727.12109375,100,CROSS,1
2026-07-28 09:12:33.425728,1787.1944000003168,45390.515625,31226.447265625,28844.359375,40099.1015625,39721.58984375,100,CROSS,1
2026-07-28 09:12:33.425728,1789.1943999998148,45376.6875,31211.951171875,28838.494140625,40087.98828125,39706.140625,100,CROSS,1
2026-07-28 09:12:33.425728,1791.1944000002222,45373.3984375,31207.279296875,28838.828125,40086.1328125,39701.75390625,100,CROSS,1
2026-07-28 09:12:33.425728,1793.194400000175,45369.19921875,31204.130859375,28835.5859375,40079.7890625,39698.55859375,100,CROSS,1
2026-07-28 09:12:33.425728,1795.1944000001276,45365.05078125,31203.701171875,28824.951171875,40073.11328125,39693.359375,100,CROSS,1
2026-07-28 09:12:33.425728,1797.1944000000803,45376.87890625,31214.765625,28826.3828125,40082.03125,39703.27734375,100,CROSS,1
2026-07-28 09:12:33.443170,1799.194400000033,45386.12890625,31217.720703125,28832.10546875,40088.9453125,39709.28515625,100,CROSS,1
2026-07-28 09:12:33.443170,1801.1943999999858,45383.83984375,31215.099609375,28828.43359375,40085.98828125,39707.94921875,100,CROSS,1
2026-07-28 09:12:33.443170,1803.1943999999385,45392.61328125,31220.630859375,28838.16015625,40096.0,39717.8671875,100,CROSS,1
2026-07-28 09:12:33.443170,1805.1943999998912,45372.0625,31199.171875,28822.853515625,40078.69140625,39695.6484375,100,CROSS,1
2026-07-28 09:12:33.443170,1807.1943999998439,45366.1953125,31191.06640625,28817.322265625,40072.4921875,39685.5390625,100,CROSS,1
2026-07-28 09:12:33.443170,1809.1944000002513,45358.13671875,31184.19921875,28810.93359375,40067.8671875,39677.91015625,100,CROSS,1
2026-07-28 09:12:33.443170,1811.194400000204,45366.43359375,31195.64453125,28818.705078125,40078.59765625,39689.40234375,100,CROSS,1
2026-07-28 09:12:33.443170,1813.1944000001567,45391.46875,31221.25,28840.49609375,40100.53125,39715.484375,100,CROSS,1
2026-07-28 09:12:33.443170,1815.1944000001095,45389.03515625,31219.294921875,28840.2109375,40100.38671875,39715.9140625,100,CROSS,1
2026-07-28 09:12:33.443170,1817.1944000000622,45380.50390625,31212.904296875,28831.771484375,40095.09375,39711.1953125,100,CROSS,1
2026-07-28 09:12:33.459212,1819.1944000000149,45377.546875,31213.66796875,28830.912109375,40093.6171875,39713.578125,100,CROSS,1
2026-07-28 09:12:33.459212,1821.1943999999676,45371.5859375,31206.134765625,28829.958984375,40091.56640625,39708.6171875,100,CROSS,1
2026-07-28 09:12:33.459212,1823.1943999999203,45370.7265625,31202.84375,28831.580078125,40091.7109375,39704.7578125,100,CROSS,1
2026-07-28 09:12:33.459212,1825.194399999873,45362.046875,31195.69140625,28823.330078125,40082.5546875,39693.93359375,100,CROSS,1
2026-07-28 09:12:33.459212,1827.1944000002804,45357.51953125,31193.259765625,28818.275390625,40076.9296875,39690.87890625,100,CROSS,1
2026-07-28 09:12:33.459212,1829.1943999997784,45362.62109375,31201.365234375,28819.849609375,40080.41015625,39697.5078125,100,CROSS,1
2026-07-28 09:12:33.459212,1831.1944000001859,45372.87109375,31212.76171875,28825.71484375,40089.421875,39707.5703125,100,CROSS,1
2026-07-28 09:12:33.459212,1833.1944000001386,45380.0234375,31216.814453125,28831.19921875,40093.85546875,39712.33984375,100,CROSS,1
2026-07-28 09:12:33.459212,1835.1944000000913,45378.40234375,31216.052734375,28830.197265625,40090.8984375,39712.48046875,100,CROSS,1
2026-07-28 09:12:33.475742,1837.194400000044,45379.69140625,31215.576171875,28834.6328125,40094.33203125,39713.43359375,100,CROSS,1
2026-07-28 09:12:33.475742,1839.1943999999967,45369.4375,31200.9375,28827.57421875,40084.5078125,39698.3203125,100,CROSS,1
2026-07-28 09:12:33.475742,1841.1943999999494,45367.8671875,31197.359375,28830.197265625,40081.5546875,39692.12109375,100,CROSS,1
2026-07-28 09:12:33.475742,1843.194399999902,45350.74609375,31183.150390625,28811.21875,40064.625,39674.3359375,100,CROSS,1
2026-07-28 09:12:33.475742,1845.1944000003095,45360.85546875,31195.310546875,28812.41015625,40072.20703125,39683.82421875,100,CROSS,1
2026-07-28 09:12:33.475742,1847.1943999998075,45372.0625,31207.087890625,28817.41796875,40081.5546875,39694.50390625,100,CROSS,1
2026-07-28 09:12:33.475742,1849.194400000215,45381.64453125,31214.859375,28827.71875,40089.66015625,39704.7109375,100,CROSS,1
